Time (s),Motion Intensity
2.7679,0.552
2.7835,0.5954
2.7992,0.5708
2.8148,0.5578
2.8305,0.5853
2.8461,0.5428
2.8617,0.4465
2.8774,0.4422
2.893,0.3714
2.9086,0.2991
2.9243,0.2876
2.9399,0.3165
2.9556,0.3873
2.9712,0.3461
2.9868,0.396
3.0025,0.4017
3.0181,0.4523
3.0338,0.3309
3.0494,0.3295
3.065,0.2543
3.0807,0.3497
3.0963,0.5318
3.1119,0.578
3.2058,0.3223
3.2214,0.3699
3.237,0.4306
3.2527,0.3858
3.2683,0.3309
3.284,0.3642
3.2996,0.3858
3.3152,0.396
3.3309,0.4104
3.3465,0.3199
3.3621,0.2818
3.3778,0.2818
3.3934,0.3064
3.4091,0.2939
3.4247,0.2991
3.4403,0.4595
3.456,0.4798
3.4716,0.5246
3.5029,0.3483
3.5185,0.3396
3.5342,0.3006
3.5498,0.237
3.5654,0.2746
3.5811,0.3348
3.5967,0.3569
3.6124,0.3714
3.628,0.4046
3.6436,0.4306
3.6593,0.4653
3.6749,0.4191
3.6905,0.3121
3.7062,0.3165
3.7218,0.2962
3.7375,0.2905
3.7531,0.2139
3.7687,0.2161
3.7844,0.2832
3.8,0.3035
3.8156,0.302
3.8313,0.3353
3.8469,0.4379
3.8626,0.5058
3.8782,0.4942
3.8938,0.3526
3.9095,0.341
3.9251,0.2847
3.9408,0.4639
3.9564,0.5332
3.972,0.5318
4.0502,0.2182
4.0659,0.2211
4.0815,0.2197
4.0971,0.1893
4.1128,0.1763
4.1284,0.2731
4.144,0.2991
4.1597,0.328
4.1753,0.3295
4.191,0.3266
4.2066,0.2471
4.2222,0.1864
4.2379,0.3049
4.2535,0.3078
4.2691,0.4668
4.2848,0.461
4.3004,0.3251
4.3161,0.565
4.3317,0.565
4.4255,0.3497
4.4412,0.3224
4.4568,0.211
4.4724,0.2355
4.4881,0.2587
4.5037,0.2836
4.5194,0.2341
4.535,0.2099
4.5506,0.2052
4.5663,0.1994
4.5819,0.3613
4.5975,0.3682
4.6132,0.4509
4.6288,0.396
4.6445,0.3988
4.6601,0.4827
4.6757,0.4032
4.6914,0.4017
4.707,0.3468
4.7226,0.3714
4.7383,0.3133
4.7539,0.2731
4.7696,0.2312
4.7852,0.2428
4.8008,0.2702
4.8165,0.2428
4.8321,0.2948
4.8477,0.2962
4.8634,0.3049
4.879,0.3945
4.8947,0.5087
4.9103,0.6431
5.0041,0.3194
5.0198,0.3309
5.0354,0.3324
5.051,0.3309
5.0667,0.3223
5.0823,0.4234
5.098,0.4191
5.1136,0.4162
5.1292,0.4061
5.1449,0.3142
5.1605,0.2413
5.1761,0.2225
5.1918,0.3049
5.2074,0.3064
5.2231,0.3179
5.2387,0.2775
5.2543,0.2059
5.27,0.211
5.2856,0.2254
5.3012,0.2153
5.3169,0.2514
5.3325,0.3878
5.3482,0.3873
5.3638,0.3844
5.3794,0.3569
5.3951,0.4133
5.4107,0.3656
5.4264,0.3179
5.442,0.2688
5.4576,0.3425
5.4733,0.354
5.4889,0.4118
5.5045,0.474
5.5202,0.5549
5.5358,0.435
5.6296,0.3092
5.6453,0.2818
5.6609,0.3757
5.6766,0.3815
5.6922,0.4162
5.786,0.2905
5.8017,0.4292
5.8173,0.4465
5.8798,0.341
5.8955,0.3006
5.9111,0.2948
5.9268,0.3468
5.9424,0.3671
5.958,0.3656
5.9737,0.25
5.9893,0.276
6.005,0.3251
6.0206,0.3613
6.0362,0.3642
6.0519,0.4306
6.0675,0.4133
6.0831,0.4104
6.0988,0.3049
6.1144,0.2572
6.1301,0.2572
6.1457,0.2818
6.1613,0.2197
6.177,0.2197
6.1926,0.2327
6.2082,0.2731
6.2239,0.3829
6.2395,0.3285
6.2552,0.237
6.2708,0.1272
6.4115,0.341
6.4272,0.4162
6.4428,0.4306
6.4585,0.4379
6.4741,0.4538
6.4897,0.3728
6.5054,0.4032
6.521,0.354
6.5366,0.2934
6.5523,0.2789
6.5679,0.276
6.5836,0.2702
6.5992,0.3237
6.6148,0.2327
6.6305,0.2254
6.6461,0.2312
6.693,0.3483
6.7087,0.3425
6.7243,0.4697
6.7399,0.5607
6.8338,0.3685
6.8494,0.328
6.865,0.302
6.8807,0.2731
6.8963,0.1474
6.912,0.1864
6.9276,0.1864
6.9432,0.2832
6.9589,0.3656
6.9745,0.3685
6.9901,0.3671
7.0058,0.2702
7.0214,0.2746
7.0371,0.2731
7.0527,0.246
7.0683,0.2731
7.084,0.2442
7.0996,0.4436
7.1152,0.3569
7.2091,0.3194
7.2247,0.3179
7.2403,0.3078
7.256,0.3815
7.2716,0.3772
7.2873,0.3772
7.3029,0.4133
7.3185,0.5101
7.3342,0.4827
7.3498,0.4436
7.3655,0.4133
7.3811,0.3714
7.3967,0.3842
7.4124,0.3786
7.428,0.289
7.4436,0.2529
7.4593,0.2818
7.4749,0.3382
7.4906,0.3382
7.5062,0.2991
7.5218,0.289
7.5375,0.3569
7.5531,0.3569
7.5687,0.4393
7.5844,0.3887
7.6,0.4682
7.6157,0.4697
7.6313,0.474
7.6469,0.3887
7.6626,0.3786
7.6782,0.2876
7.6938,0.2529
7.7095,0.2934
7.7251,0.3078
7.7408,0.2486
7.7564,0.211
7.772,0.2847
7.7877,0.2876
7.8033,0.2991
7.8189,0.2803
7.8346,0.3757
7.8502,0.4292
7.8659,0.3916
7.8815,0.3064
7.8971,0.2948
7.9128,0.2601
7.9284,0.3602
7.9441,0.4277
7.9597,0.4191
7.9753,0.2066
7.991,0.2139
8.0379,0.4798
8.0692,0.3483
8.0848,0.341
8.1004,0.2962
8.1161,0.2731
8.1317,0.3522
8.1473,0.4061
8.163,0.3873
8.1786,0.3367
8.1943,0.3642
8.2099,0.3844
8.2255,0.4581
8.2412,0.3772
8.2568,0.435
8.2724,0.513
8.2881,0.5072
8.3976,0.2905
8.4132,0.2775
8.4288,0.2587
8.4445,0.1821
8.4601,0.1749
8.4757,0.263
8.4914,0.3685
8.507,0.3945
8.5227,0.3728
8.5383,0.289
8.5539,0.3714
8.5696,0.4306
8.5852,0.3988
8.6008,0.3642
8.6165,0.3656
8.6321,0.3844
8.6478,0.3743
8.6634,0.4162
8.679,0.409
8.6947,0.3858
8.7103,0.3743
8.7259,0.2962
8.7416,0.2702
8.7572,0.3367
8.7729,0.3382
8.7885,0.3367
8.8041,0.3829
8.8198,0.3931
8.8354,0.4133
8.8511,0.4061
8.8667,0.4375
8.8823,0.422
8.898,0.3569
8.9136,0.25
8.9605,0.5121
9.0231,0.4668
9.0387,0.4292
9.0543,0.4017
9.07,0.4812
9.0856,0.4191
9.1013,0.4176
9.1169,0.354
9.1325,0.3699
9.1482,0.2818
9.1638,0.1185
9.1794,0.1763
9.1951,0.224
9.2107,0.4061
9.2264,0.3121
9.242,0.2818
9.2576,0.2876
9.2733,0.289
9.2889,0.4176
9.3045,0.3873
9.3515,0.2572
9.3671,0.2081
9.3827,0.2009
9.3984,0.237
9.414,0.2572
9.4297,0.3136
9.4453,0.3439
9.4609,0.3425
9.4766,0.3257
9.4922,0.3425
9.5078,0.3526
9.5235,0.4061
9.5391,0.4321
9.5548,0.4451
9.6017,0.3613
9.6173,0.2341
9.6329,0.2327
9.6486,0.1763
9.6642,0.3035
9.7111,0.3295
9.7268,0.3324
9.7424,0.3844
9.758,0.4451
9.7737,0.3931
9.7893,0.3858
9.805,0.172
9.8206,0.1142
9.8362,0.3049
9.9301,0.3035
9.9457,0.3035
9.9613,0.276
9.977,0.2659
9.9926,0.2688
10.0083,0.2746
10.0239,0.2731
10.0395,0.2442
10.0552,0.2558
10.0708,0.3107
10.0864,0.3092
10.1021,0.2775
10.1177,0.3367
10.1334,0.3483
10.149,0.3829
10.1646,0.4408
10.1803,0.3974
10.1959,0.3555
10.2115,0.2052
10.2741,0.1575
10.2897,0.2818
10.3054,0.354
10.3679,0.4581
10.3836,0.4393
10.3992,0.3743
10.4148,0.3743
10.4305,0.4379
10.4461,0.4003
10.4618,0.2095
10.4774,0.1806
10.493,0.1965
10.5087,0.3237
10.5243,0.3916
10.5399,0.3887
10.6025,0.1806
10.6338,0.2876
10.6494,0.3497
10.665,0.3801
10.6807,0.4234
10.6963,0.2948
10.712,0.2803
10.7276,0.2225
10.7432,0.2197
10.7589,0.2211
10.7745,0.1936
10.7902,0.2182
10.8058,0.2789
10.8214,0.2529
10.8371,0.237
10.8527,0.2876
10.8683,0.4928
10.884,0.5173
10.8996,0.4827
10.9778,0.4046
11.0247,0.3497
11.0404,0.2587
11.056,0.3454
11.228,0.3223
11.2436,0.4191
11.2593,0.4566
11.2749,0.3136
11.2906,0.2799
11.3688,0.6098
11.4626,0.2225
11.4782,0.2124
11.4939,0.2717
11.5095,0.3136
11.5251,0.2832
11.5408,0.2587
11.5564,0.2803
11.572,0.3179
11.5877,0.3353
11.6033,0.3064
11.619,0.3627
11.6346,0.3468
11.6502,0.2905
11.6659,0.1864
11.6815,0.2847
11.6971,0.2803
11.7128,0.2789
11.7284,0.276
11.7441,0.2905
11.7597,0.2977
11.7753,0.3006
11.791,0.2789
11.8066,0.2885
11.8223,0.2948
11.8379,0.2977
11.8535,0.2991
11.8692,0.2746
11.8848,0.1936
11.9004,0.2023
11.9161,0.2587
11.9317,0.354
11.9474,0.2919
11.963,0.3685
11.9786,0.4234
11.9943,0.4494
12.0725,0.3902
12.0881,0.3121
12.1037,0.2847
12.1194,0.276
12.135,0.3078
12.1506,0.3338
12.1663,0.3613
12.1819,0.3396
12.1976,0.2413
12.2132,0.2023
12.2288,0.2688
12.2445,0.3786
12.2601,0.4697
12.2758,0.3815
12.2914,0.3309
12.307,0.2341
12.3227,0.2731
12.3383,0.2904
12.3539,0.2645
12.3696,0.2789
12.3852,0.3208
12.4009,0.3931
12.4165,0.3251
12.4321,0.3526
12.4478,0.4509
12.4634,0.4523
12.5416,0.3916
12.5572,0.2789
12.5729,0.2471
12.5885,0.2977
12.6041,0.3266
12.6198,0.3078
12.6354,0.2717
12.6511,0.2832
12.6667,0.289
12.6823,0.2686
12.698,0.25
12.7136,0.2529
12.7292,0.3006
12.7449,0.3006
12.7605,0.3367
12.7762,0.289
12.7918,0.2341
12.8074,0.2283
12.8231,0.3743
12.8387,0.474
12.8544,0.472
12.9325,0.328
12.9482,0.3757
12.9638,0.2702
12.9795,0.2471
12.9951,0.2601
13.0107,0.4205
13.0264,0.4205
13.042,0.3728
13.0576,0.3049
13.1046,0.3367
13.1202,0.3671
13.1358,0.4465
13.1515,0.3887
13.1671,0.3873
13.1827,0.3064
13.1984,0.3685
13.214,0.3064
13.2297,0.3049
13.2453,0.2616
13.2609,0.3613
13.2766,0.3685
13.2922,0.5289
13.3079,0.5607
13.3235,0.4581
13.3391,0.3757
13.4017,0.2384
13.4173,0.3497
13.433,0.4017
13.4486,0.4133
13.4642,0.3788
13.4799,0.3049
13.4955,0.2861
13.5268,0.5275
13.5424,0.5303
13.6206,0.4249
13.6362,0.3685
13.6519,0.3526
13.6675,0.4075
13.6832,0.4075
13.6988,0.4451
13.7144,0.3974
13.7301,0.3671
13.7457,0.3902
13.7614,0.3338
13.777,0.3338
13.7926,0.3497
13.8083,0.4639
13.8239,0.5361
13.8395,0.4653
13.8552,0.3728
13.8708,0.3092
13.8865,0.3035
13.9021,0.3353
13.9177,0.4191
13.9334,0.3772
13.949,0.3598
13.9646,0.2341
13.9803,0.2659
14.0272,0.4509
14.0428,0.4162
14.0585,0.4942
14.0741,0.4234
14.0897,0.3468
14.1054,0.2197
14.1367,0.328
14.1523,0.4536
14.1679,0.4827
14.1836,0.4436
14.1992,0.3396
14.293,0.6127
14.3556,0.3208
14.3712,0.3497
14.3869,0.3179
14.4025,0.315
14.4181,0.2962
14.4338,0.3237
14.4494,0.328
14.4651,0.2399
14.4807,0.2254
14.4963,0.2514
14.512,0.2803
14.5276,0.2832
14.5432,0.2746
14.5589,0.2645
14.5745,0.2789
14.5902,0.3539
14.6058,0.409
14.6214,0.3454
14.6371,0.3237
14.6527,0.2254
14.6683,0.3685
14.684,0.4277
14.6996,0.4263
14.7153,0.2934
14.7309,0.2587
14.7465,0.2442
14.7622,0.2876
14.7778,0.3642
14.7935,0.3468
14.8091,0.3382
14.8247,0.3092
14.8404,0.3771
14.856,0.3945
14.8716,0.3237
14.8873,0.3223
14.9029,0.328
14.9186,0.4773
14.9342,0.5491
14.9498,0.487
14.9655,0.3931
14.9811,0.2803
15.028,0.2312
15.0437,0.2689
15.0593,0.289
15.0749,0.2876
15.0906,0.2471
15.1062,0.1792
15.1218,0.2211
15.1375,0.2269
15.1531,0.2934
15.1688,0.2962
15.1844,0.4306
15.2,0.4321
15.2782,0.3483
15.2939,0.3064
15.3095,0.2471
15.3251,0.2601
15.3408,0.2457
15.3564,0.3035
15.3721,0.3049
15.3877,0.2818
15.4033,0.289
15.419,0.3685
15.4346,0.328
15.4502,0.3194
15.4659,0.2977
15.4815,0.2688
15.4972,0.2457
15.5128,0.2876
15.5284,0.2876
15.5441,0.341
15.5597,0.3338
15.5753,0.3382
15.591,0.3251
15.6066,0.3121
15.6223,0.2168
15.6379,0.2124
15.6535,0.2659
15.6692,0.3309
15.6848,0.3671
15.7005,0.3685
15.7161,0.3699
15.7474,0.3237
15.763,0.3237
15.7786,0.3266
15.7943,0.315
15.8099,0.3367
15.8256,0.3439
15.8412,0.3598
15.8568,0.3208
15.8725,0.3049
15.8881,0.2775
15.9037,0.2457
15.9194,0.2442
15.935,0.2818
15.9507,0.3251
15.9663,0.3772
15.9819,0.3425
15.9976,0.3035
16.0132,0.2543
