Time (s),Motion Intensity
2.7679,0.7431
2.8774,0.2673
2.893,0.3295
2.9086,0.5072
2.9243,0.5723
3.0181,0.5592
3.0338,0.5939
3.1276,0.3439
3.1432,0.3887
3.1589,0.4234
3.1901,0.422
3.2214,0.2254
3.237,0.198
3.2527,0.341
3.2683,0.3425
3.284,0.3179
3.2996,0.2847
3.4403,0.1749
3.456,0.1777
3.4716,0.1864
3.4873,0.1994
3.5029,0.2298
3.5185,0.2269
3.5342,0.2413
3.5498,0.3512
3.5654,0.4139
3.5811,0.4188
3.5967,0.3714
3.6124,0.2673
3.628,0.2327
3.6436,0.2312
3.6749,0.409
3.6905,0.3815
3.7375,0.2962
3.7531,0.315
3.7687,0.3266
3.7844,0.237
3.8,0.1604
3.8156,0.2298
3.8313,0.2789
3.8469,0.2775
3.8626,0.2283
3.8782,0.2818
3.8938,0.2905
3.9095,0.3743
3.9251,0.3569
3.9408,0.3035
3.9564,0.2717
3.972,0.3309
3.9877,0.3382
4.0033,0.3136
4.0189,0.5058
4.0346,0.4653
4.0502,0.4624
4.1284,0.2197
4.144,0.2197
4.1597,0.1604
4.1753,0.159
4.191,0.2688
4.2066,0.3916
4.2222,0.4017
4.2379,0.4017
4.2535,0.2977
4.2691,0.2962
4.3004,0.2413
4.3161,0.2428
4.3317,0.3049
4.3473,0.3685
4.363,0.3439
4.3786,0.3512
4.3942,0.3613
4.4099,0.211
4.4255,0.2962
4.4412,0.3425
4.4568,0.5202
4.4724,0.3931
4.4881,0.302
4.5037,0.1893
4.535,0.2283
4.5506,0.2616
4.5663,0.341
4.5819,0.3223
4.5975,0.289
4.6132,0.2919
4.6288,0.2428
4.6445,0.3092
4.6601,0.5087
4.6757,0.6012
4.7696,0.2124
4.7852,0.1936
4.8008,0.2196
4.8165,0.2341
4.8321,0.2616
4.8477,0.2587
4.8634,0.3627
4.879,0.4855
4.8947,0.4075
4.9103,0.3049
4.9259,0.2514
4.9729,0.4566
4.9885,0.4176
5.0041,0.3598
5.0198,0.3598
5.0354,0.3483
5.051,0.2905
5.0667,0.2413
5.0823,0.237
5.098,0.2486
5.1136,0.2269
5.1292,0.2254
5.1449,0.2486
5.1605,0.2471
5.1761,0.2124
5.1918,0.2731
5.2074,0.3743
5.2231,0.4566
5.2387,0.3844
5.2543,0.3353
5.3169,0.4566
5.3794,0.3656
5.3951,0.2009
5.4107,0.1691
5.4264,0.1994
5.442,0.1994
5.4576,0.198
5.4733,0.2197
5.4889,0.2211
5.5045,0.211
5.5202,0.2006
5.5358,0.4191
5.5515,0.4552
5.6922,0.3107
5.7078,0.4191
5.7235,0.4205
5.7391,0.3743
5.7547,0.2659
5.7704,0.2587
5.786,0.3006
5.8017,0.2327
5.8173,0.3049
5.8329,0.3064
5.8486,0.3627
5.8642,0.3757
5.8798,0.3324
5.8955,0.2182
5.9111,0.1142
5.9268,0.1879
5.9424,0.2587
5.958,0.2587
5.9737,0.3613
5.9893,0.3483
6.005,0.3512
6.0362,0.5968
6.1457,0.2486
6.1613,0.1951
6.177,0.1315
6.1926,0.1416
6.2082,0.0853
6.2239,0.0853
6.2395,0.0621
6.2552,0.1864
6.2708,0.3439
6.2864,0.4075
6.3021,0.3598
6.3177,0.2818
6.3333,0.2225
6.349,0.2789
6.3646,0.2009
6.3803,0.1691
6.3959,0.2052
6.4115,0.302
6.4272,0.2991
6.4428,0.2312
6.4585,0.2962
6.4741,0.2558
6.4897,0.2038
6.5054,0.289
6.521,0.2902
6.5992,0.2702
6.6148,0.2717
6.6305,0.2948
6.6461,0.3266
6.6617,0.2066
6.6774,0.1925
6.693,0.2688
6.7087,0.4292
6.7243,0.3512
6.7712,0.2153
6.7868,0.185
6.8025,0.1893
6.8181,0.1358
6.8338,0.1185
6.8494,0.1416
6.865,0.3107
6.8807,0.3699
6.8963,0.3454
6.912,0.3425
6.9276,0.3121
6.9432,0.2948
6.9589,0.2052
6.9745,0.1228
6.9901,0.1474
7.0058,0.2529
7.0214,0.3902
7.084,0.2442
7.0996,0.1691
7.1152,0.2428
7.1309,0.354
7.1465,0.4104
7.256,0.2023
7.2716,0.3988
7.2873,0.3873
7.3811,0.3858
7.3967,0.3569
7.4124,0.2529
7.428,0.2197
7.4436,0.2471
7.4593,0.1864
7.4749,0.1723
7.4906,0.0694
7.5062,0.2225
7.5218,0.2486
7.5375,0.2919
7.5531,0.2442
7.5687,0.3006
7.5844,0.1965
7.6,0.1965
7.6157,0.1965
7.6313,0.276
7.6469,0.3092
7.6626,0.2688
7.6782,0.2688
7.6938,0.2688
7.7095,0.2688
7.7251,0.2081
7.7408,0.1171
7.7564,0.1056
7.772,0.1098
7.7877,0.2139
7.8033,0.2153
7.8189,0.2442
7.8346,0.3035
7.8502,0.3801
7.8659,0.591
7.8815,0.5723
7.8971,0.3974
7.9128,0.2327
8.0379,0.2616
8.0535,0.3728
8.0692,0.328
8.163,0.1416
8.1786,0.2121
8.1943,0.2905
8.2099,0.3266
8.2255,0.2081
8.2412,0.2948
8.3506,0.4176
8.3663,0.4205
8.3819,0.3035
8.3976,0.2645
8.4914,0.2789
8.507,0.3114
8.5227,0.4074
8.5383,0.4017
8.679,0.2486
8.6947,0.2388
8.7103,0.0968
8.7259,0.1416
8.7416,0.1662
8.7572,0.2702
8.7729,0.2197
8.7885,0.1777
8.8041,0.22
8.8198,0.2312
8.8354,0.289
8.8511,0.2197
8.8667,0.2158
8.8823,0.185
8.898,0.1431
8.9136,0.2153
8.9292,0.1994
8.9449,0.3353
8.9605,0.4263
8.9762,0.4668
9.0231,0.276
9.0387,0.1864
9.0543,0.1156
9.07,0.0824
9.0856,0.1864
9.1013,0.237
9.1169,0.2616
9.1325,0.2341
9.1482,0.2457
9.1638,0.2486
9.1794,0.2572
9.1951,0.1488
9.2107,0.1464
9.2264,0.1806
9.242,0.3367
9.2576,0.4682
9.3202,0.3324
9.3671,0.2977
9.3827,0.2977
9.4609,0.2861
9.4766,0.2717
9.4922,0.2298
9.5078,0.2327
9.5235,0.1503
9.5391,0.224
9.5548,0.2645
9.5704,0.4783
9.6486,0.3239
9.6642,0.302
9.6799,0.1532
9.6955,0.1633
9.7111,0.1633
9.7424,0.185
9.758,0.1185
9.7737,0.1113
9.7893,0.146
9.805,0.1474
9.8206,0.2558
9.8362,0.1662
9.8519,0.1647
9.8675,0.1142
9.8832,0.2182
9.8988,0.2616
9.9144,0.3078
9.9301,0.328
9.9457,0.3699
9.9613,0.4104
9.977,0.4017
9.9926,0.2623
10.0083,0.1532
10.0239,0.1546
10.0708,0.3642
10.1021,0.1806
10.1177,0.1402
10.1334,0.2153
10.149,0.185
10.1646,0.16
10.1803,0.0838
10.1959,0.1199
10.2115,0.2471
10.2272,0.25
10.2428,0.2471
10.2585,0.3121
10.2741,0.3931
10.2897,0.3945
10.3054,0.4408
10.321,0.3064
10.3367,0.2009
10.3523,0.1835
10.3836,0.4697
10.4305,0.2023
10.4461,0.172
10.4618,0.1821
10.4774,0.1835
10.493,0.1402
10.5087,0.1142
10.5243,0.1546
10.5399,0.185
10.5556,0.2197
10.5712,0.2197
10.5869,0.2399
10.6025,0.1763
10.6181,0.1517
10.6338,0.1488
10.6494,0.0766
10.665,0.1373
10.6807,0.1922
10.6963,0.3136
10.712,0.3714
10.7276,0.474
10.7432,0.3685
10.7589,0.3468
10.8214,0.0968
10.8371,0.1936
10.8527,0.2803
10.8683,0.2861
10.884,0.2197
10.8996,0.2197
10.9153,0.2514
10.9309,0.2832
10.9465,0.276
10.9622,0.1503
10.9778,0.1156
10.9934,0.1647
11.0091,0.2486
11.0247,0.2587
11.0404,0.2587
11.056,0.2746
11.0716,0.2572
11.0873,0.1835
11.1029,0.2254
11.1185,0.2269
11.1342,0.1301
11.1498,0.0679
11.1655,0.0592
11.1811,0.1633
11.1967,0.1951
11.2124,0.2731
11.228,0.3295
11.2436,0.328
11.2593,0.2529
11.2749,0.2659
11.2906,0.1705
11.3062,0.1199
11.3218,0.0983
11.3375,0.1705
11.3531,0.1749
11.3688,0.2225
11.3844,0.2286
11.4,0.2543
11.4157,0.2399
11.4313,0.2225
11.4469,0.2702
11.4626,0.185
11.4782,0.2124
11.4939,0.2645
11.5095,0.2428
11.5251,0.2428
11.5564,0.2327
11.572,0.2818
11.5877,0.2075
11.6033,0.2384
11.619,0.1561
11.6346,0.1489
11.6502,0.1069
11.6659,0.3107
11.6815,0.4783
11.6971,0.5303
11.791,0.1127
11.8066,0.1084
11.8223,0.2023
11.8379,0.198
11.8535,0.1893
11.8692,0.1604
11.8848,0.2052
11.9004,0.2566
11.9161,0.3035
11.9317,0.159
11.9474,0.1503
11.963,0.1532
11.9786,0.2611
11.9943,0.5188
12.0099,0.5882
12.0255,0.5679
12.1037,0.1373
12.1194,0.1359
12.135,0.0838
12.1506,0.1662
12.1663,0.1647
12.1819,0.1633
12.1976,0.1647
12.2132,0.1431
12.2288,0.1965
12.2445,0.276
12.2601,0.302
12.2758,0.276
12.2914,0.2442
12.307,0.3266
12.3227,0.341
12.3383,0.3882
12.3539,0.4017
12.3696,0.4408
12.3852,0.2066
12.4009,0.1777
12.4478,0.3006
12.4634,0.3194
12.4947,0.2731
12.5103,0.2746
12.526,0.2442
12.5416,0.1156
12.5572,0.2023
12.5729,0.2038
12.5885,0.4118
12.6041,0.3425
12.6198,0.341
12.6511,0.3208
12.6667,0.3078
12.6823,0.3324
12.698,0.2168
12.7136,0.1416
12.7292,0.1026
12.7449,0.1864
12.7605,0.2543
12.7762,0.289
12.7918,0.2818
12.8074,0.2673
12.8231,0.2442
12.8387,0.2124
12.8544,0.1286
12.87,0.1243
12.8856,0.1257
12.9013,0.2355
12.9169,0.3916
12.9325,0.4292
12.9482,0.4639
12.9638,0.3902
12.9795,0.3396
12.9951,0.3251
13.0107,0.2543
13.0264,0.172
13.042,0.3324
13.0576,0.3396
13.0733,0.4639
13.1515,0.2832
13.1671,0.2616
13.1827,0.2081
13.1984,0.1431
13.214,0.0968
13.2297,0.1561
13.2453,0.1575
13.2609,0.2514
13.2766,0.354
13.2922,0.3699
13.3079,0.2977
13.3235,0.3078
13.3391,0.2052
13.3548,0.1286
13.3704,0.2341
13.386,0.328
13.4017,0.4162
13.4486,0.2919
13.4642,0.224
13.4799,0.2038
13.4955,0.2471
13.5111,0.1734
13.5268,0.1734
13.5424,0.0636
13.5581,0.2543
13.5737,0.3569
13.5893,0.3685
13.6832,0.0795
13.6988,0.1604
13.7144,0.2355
13.7301,0.3789
13.7457,0.3873
13.7614,0.5217
13.777,0.4277
13.7926,0.3194
13.8083,0.2529
13.8239,0.2009
13.8395,0.146
13.8552,0.1272
13.8708,0.3526
13.8865,0.6026
13.9021,0.7283
13.9959,0.1171
14.0116,0.1835
14.0272,0.185
14.0428,0.3526
14.0585,0.354
14.1054,0.2645
14.121,0.2254
14.1367,0.224
14.1523,0.2165
14.1679,0.1951
14.1836,0.2009
14.1992,0.2934
14.2148,0.1994
14.2305,0.2168
14.2461,0.2432
14.2618,0.328
14.2774,0.3035
14.293,0.302
14.3087,0.3251
14.3243,0.2486
14.34,0.1662
14.3712,0.263
14.3869,0.3251
14.4025,0.315
14.4181,0.2977
14.4338,0.3613
14.4494,0.3699
14.4651,0.2818
14.4807,0.2182
14.4963,0.1763
14.5432,0.1676
14.5589,0.2514
14.5745,0.3338
14.5902,0.3974
14.6058,0.3324
14.6214,0.396
14.6371,0.2832
14.6527,0.2818
14.7309,0.2081
14.7465,0.2413
14.7622,0.1965
14.7778,0.1676
14.7935,0.1546
14.8091,0.0751
14.8247,0.1156
14.8404,0.1156
14.856,0.289
14.8716,0.461
14.8873,0.5231
14.9811,0.1835
14.9967,0.185
15.0124,0.3208
15.028,0.3035
15.0437,0.3642
15.0593,0.3627
15.0749,0.341
15.0906,0.3988
15.1062,0.4465
15.1218,0.3179
15.1375,0.1965
15.1531,0.1604
15.2,0.211
15.2157,0.2095
15.2313,0.1633
15.247,0.2095
15.2626,0.1965
15.2782,0.1084
15.2939,0.1936
15.3095,0.1951
15.3251,0.2514
15.3408,0.1488
15.3564,0.2182
15.3721,0.3136
15.3877,0.3194
15.4033,0.3266
15.419,0.3266
15.4346,0.3598
15.4502,0.2182
15.4659,0.1734
15.4972,0.3396
15.5441,0.1834
15.5597,0.1792
15.5753,0.1171
15.591,0.146
15.6066,0.2384
15.6223,0.3512
15.6379,0.3353
15.6535,0.2673
15.6692,0.4234
15.6848,0.4263
15.7161,0.289
15.7317,0.2645
15.7474,0.2457
15.7786,0.2442
15.7943,0.1922
15.8099,0.2052
15.8256,0.2211
15.8412,0.2182
15.8568,0.2934
15.8725,0.3092
15.8881,0.2954
15.9037,0.2471
15.9194,0.1662
15.935,0.2572
15.9507,0.276
15.9663,0.3569
15.9819,0.2919
15.9976,0.2486
16.0132,0.1763
