Time (s),Motion Intensity
0.0,0.532
0.0619,0.5457
0.1238,0.557
0.1857,0.492
0.2477,0.4599
0.3096,0.4502
0.3715,0.4689
0.4334,0.471
0.4953,0.466
0.5572,0.4936
0.6191,0.4658
0.6811,0.4618
0.743,0.477
0.8049,0.4886
0.8668,0.8316
0.9287,0.7971
0.9906,0.7514
1.0525,0.7486
6.3771,0.1069
6.439,0.1806
6.5009,0.2688
6.5629,0.2818
6.6248,0.2919
6.8105,0.3786
6.9343,0.3512
6.9962,0.3121
7.0582,0.2355
7.1201,0.3107
7.182,0.3064
7.2439,0.1546
7.3058,0.1879
7.3677,0.2413
7.4296,0.2832
7.4916,0.2746
7.5535,0.276
7.6154,0.2746
7.6773,0.258
7.7392,0.2558
7.8011,0.224
7.863,0.1474
7.925,0.1777
7.9869,0.198
8.0488,0.2211
8.1107,0.2471
8.1726,0.2168
8.2345,0.2789
8.2964,0.25
8.3583,0.2413
8.4203,0.185
8.4822,0.3743
8.5441,0.3714
8.606,0.3627
8.6679,0.25
8.7298,0.3136
8.7917,0.3092
8.8537,0.2934
8.9156,0.328
8.9775,0.3786
9.0394,0.3757
9.1632,0.3107
9.2251,0.2934
9.2871,0.2818
9.349,0.3382
9.4109,0.3916
9.4728,0.2886
9.5347,0.2471
9.5966,0.2572
9.6585,0.2267
9.7205,0.341
9.7824,0.3439
10.03,0.2172
10.0919,0.2572
10.1538,0.2685
10.2158,0.276
10.2777,0.1908
10.3396,0.1922
10.4015,0.1997
10.4634,0.2514
10.5253,0.2803
10.5872,0.2818
10.6492,0.3295
10.7111,0.289
10.773,0.2702
10.8349,0.2616
10.8968,0.2746
10.9587,0.3786
11.0206,0.3801
11.3302,0.2865
11.5779,0.1402
11.6398,0.1416
11.7017,0.2099
11.7636,0.3396
11.8255,0.3757
12.0113,0.328
12.0732,0.1893
12.1351,0.3483
12.197,0.5029
12.2589,0.5896
12.3208,0.526
12.5066,0.3035
12.5685,0.3801
12.6304,0.3396
12.6923,0.3382
12.94,0.2182
13.0019,0.2355
13.0638,0.2384
13.1257,0.2471
13.1876,0.1792
13.2495,0.1861
13.3114,0.2341
13.3734,0.4783
13.4353,0.4783
13.7448,0.3916
13.8068,0.3858
13.9306,0.1171
13.9925,0.1079
14.0544,0.1301
14.1163,0.1762
14.1782,0.1971
14.2402,0.2081
14.3021,0.2095
14.364,0.224
14.4259,0.2327
14.4878,0.3671
14.5497,0.3439
14.6116,0.1936
14.6735,0.2009
14.7355,0.2095
14.7974,0.3367
14.8593,0.2919
15.2308,0.224
15.2927,0.2803
15.3546,0.2746
15.4165,0.3223
15.4784,0.354
15.5403,0.2168
15.6023,0.1792
15.6642,0.3732
15.7261,0.4827
15.9737,0.3801
16.0976,0.2847
16.1595,0.2919
16.2214,0.328
16.2833,0.3309
16.3452,0.2919
16.4071,0.302
16.469,0.2601
16.9024,0.2712
16.9644,0.3353
17.0263,0.3887
17.0882,0.3988
17.1501,0.3656
17.3977,0.2702
17.4597,0.4711
17.5216,0.4592
17.7073,0.1113
17.7692,0.1749
17.8311,0.1749
17.8931,0.2298
17.955,0.198
18.0169,0.1407
18.0788,0.0795
18.1407,0.1546
18.2026,0.172
18.2645,0.2095
18.3265,0.2254
18.3884,0.2052
18.4503,0.1243
18.5122,0.2428
18.5741,0.2457
18.636,0.2746
18.6979,0.3367
18.7598,0.3324
18.8218,0.2442
18.8837,0.3598
18.9456,0.341
19.1932,0.2616
19.2552,0.1879
19.3171,0.2168
19.379,0.2168
19.4409,0.2977
19.5028,0.263
19.5647,0.2543
19.6266,0.1532
19.6886,0.2616
19.7505,0.3396
19.8124,0.4162
19.8743,0.4176
19.9362,0.3598
19.9981,0.1951
20.06,0.2876
20.122,0.315
20.1839,0.2977
20.2458,0.1517
20.3077,0.1951
20.3696,0.25
20.4315,0.2269
20.4934,0.2616
20.5553,0.1893
20.6173,0.1879
20.6792,0.3136
20.7411,0.4465
20.803,0.474
21.0507,0.3237
21.1126,0.3844
21.1745,0.4263
21.546,0.1806
21.6079,0.2601
21.6698,0.2587
21.7317,0.2514
21.7936,0.25
21.8555,0.1908
21.9174,0.3873
21.9794,0.396
22.227,0.261
22.2889,0.4408
22.5985,0.1561
22.6604,0.1561
22.7223,0.25
22.7842,0.3136
22.8462,0.2818
22.9081,0.4003
22.97,0.4017
23.1557,0.263
23.2176,0.2717
23.2795,0.2587
23.3415,0.2354
23.4034,0.276
23.4653,0.2341
23.5272,0.2673
23.5891,0.2688
23.7749,0.1474
23.8368,0.3049
23.8987,0.3396
23.9606,0.3598
24.2083,0.3396
24.4559,0.3396
24.5178,0.3382
24.5797,0.1821
24.7036,0.2225
24.7655,0.1806
24.8274,0.2977
24.8893,0.3035
25.075,0.2905
25.3227,0.2854
25.3846,0.1864
25.4465,0.2038
25.5084,0.3396
25.5704,0.3902
25.6323,0.3931
25.818,0.3237
25.8799,0.3338
26.1276,0.1994
26.1895,0.2355
26.2514,0.2717
26.3133,0.237
26.3752,0.1734
26.4371,0.1749
26.4991,0.3961
26.561,0.3971
26.6229,0.3974
26.8705,0.4234
26.9325,0.5246
26.9944,0.4422
27.3039,0.1936
27.3659,0.2187
27.4278,0.2357
27.4897,0.3555
27.5516,0.3929
27.6135,0.3165
27.6754,0.3439
27.985,0.104
28.0469,0.1344
28.1088,0.1936
28.1707,0.2095
28.2326,0.2702
28.2946,0.2688
28.3565,0.2688
28.4184,0.4104
28.4803,0.4118
28.5422,0.3844
28.6041,0.3165
28.666,0.3064
28.728,0.2283
28.7899,0.2283
28.8518,0.2471
28.9137,0.211
28.9756,0.1936
29.0375,0.3241
29.0994,0.5029
29.6567,0.2306
29.7186,0.2659
29.7805,0.3671
29.8424,0.3685
29.9043,0.422
30.0901,0.2514
30.152,0.3598
30.2139,0.3497
30.2758,0.3483
30.3996,0.4162
30.4615,0.3887
30.5235,0.3858
30.5854,0.2601
30.7092,0.2558
30.7711,0.2321
30.833,0.1763
30.8949,0.1691
30.9568,0.1936
31.0188,0.1936
31.0807,0.1951
31.1426,0.328
31.2045,0.2645
31.2664,0.2341
31.3283,0.1532
31.3902,0.1575
31.4522,0.185
31.5141,0.263
31.576,0.2987
31.6379,0.4133
31.6998,0.4971
31.7617,0.3714
31.8236,0.2023
31.8856,0.1792
31.9475,0.2312
32.0094,0.2298
32.0713,0.2124
32.1332,0.3006
32.1951,0.2832
32.257,0.2832
32.3189,0.2471
32.3809,0.2659
32.4428,0.2707
32.5047,0.3184
32.5666,0.3251
32.6285,0.3454
32.6904,0.3439
32.8762,0.2038
32.9381,0.2038
33.0,0.2153
33.0619,0.2254
33.1238,0.2427
33.1857,0.2818
33.2477,0.2673
33.3096,0.2211
33.3715,0.1979
33.4334,0.3671
33.4953,0.3685
33.5572,0.3194
33.6191,0.3338
33.6811,0.3035
33.8668,0.2283
33.9287,0.2486
33.9906,0.3064
34.0525,0.3223
34.1144,0.2442
34.1764,0.2153
34.2383,0.2182
34.3002,0.3671
34.3621,0.3685
34.424,0.2327
34.4859,0.1662
34.5478,0.4147
34.6098,0.4104
34.8574,0.2168
34.9193,0.1951
34.9812,0.3338
35.0432,0.341
35.2908,0.3006
35.3527,0.3121
35.4146,0.3194
35.4765,0.4032
35.5385,0.3555
35.6004,0.2341
35.6623,0.2688
35.7242,0.2788
35.7861,0.2731
35.848,0.1171
35.9099,0.1517
35.9719,0.1517
36.0338,0.2602
36.0957,0.2803
36.1576,0.2847
36.2195,0.2991
36.2814,0.3555
36.4672,0.198
36.5291,0.3035
36.591,0.3049
36.6529,0.3439
36.7148,0.3338
36.7767,0.3338
36.8386,0.2587
36.9006,0.263
36.9625,0.2803
37.0244,0.4412
37.4578,0.4624
37.5197,0.4196
37.5816,0.2081
37.6435,0.2269
37.7054,0.2254
37.7674,0.4147
37.8293,0.4798
38.015,0.4032
38.0769,0.3107
38.1388,0.1864
38.2008,0.1835
38.2627,0.1416
38.3246,0.2303
38.3865,0.2471
38.4484,0.2558
38.5103,0.2601
38.5722,0.2399
38.6341,0.2847
38.6961,0.3136
38.758,0.3251
38.8199,0.315
38.8818,0.2948
38.9437,0.2789
39.0056,0.2543
39.0675,0.2486
39.1295,0.2356
39.1914,0.2066
39.2533,0.2182
39.3152,0.2645
39.3771,0.3569
39.439,0.3569
39.6248,0.2355
39.6867,0.2853
39.7486,0.3435
39.8105,0.3382
39.8724,0.352
39.9343,0.4494
39.9962,0.461
40.0582,0.3728
40.182,0.2543
40.2439,0.289
40.3058,0.2919
40.3677,0.2962
40.4296,0.5072
40.4916,0.5101
40.5535,0.5332
40.6154,0.3801
40.6773,0.3483
40.7392,0.3569
40.8011,0.3425
40.863,0.2818
40.925,0.3208
40.9869,0.4032
41.0488,0.3165
41.1107,0.2861
41.1726,0.3092
41.3583,0.172
41.4203,0.1315
41.4822,0.1676
41.5441,0.1777
41.606,0.1922
41.6679,0.4017
41.7298,0.4032
42.1013,0.2341
42.1632,0.3168
42.2251,0.4523
42.2871,0.3945
42.7205,0.3873
42.7824,0.4249
42.8443,0.396
42.9681,0.2211
43.03,0.2702
43.0919,0.2688
43.1538,0.2688
43.2158,0.3536
43.2777,0.2746
43.3396,0.2622
43.4015,0.2066
43.4634,0.198
43.5253,0.3772
43.5872,0.4647
43.6492,0.5275
43.8349,0.396
44.2683,0.1792
44.3302,0.1691
44.3921,0.1445
44.454,0.2269
44.5159,0.2283
44.5779,0.3613
44.6398,0.3317
44.7017,0.2914
44.7636,0.172
44.8255,0.2731
44.8874,0.3437
45.2589,0.4191
45.3827,0.2948
45.4447,0.2919
45.5066,0.2529
45.5685,0.2905
45.6304,0.2442
45.6923,0.3837
45.7542,0.4494
45.8161,0.4683
45.878,0.3974
45.94,0.2052
46.0019,0.2312
46.0638,0.3561
46.1257,0.474
46.3734,0.2442
46.4353,0.3092
46.4972,0.3121
46.5591,0.4234
46.621,0.4321
46.6829,0.3678
46.7448,0.409
47.0544,0.3623
47.1163,0.3931
47.364,0.422
47.4878,0.3107
47.5497,0.2905
47.6116,0.2616
47.6735,0.2413
47.7355,0.2919
47.7974,0.2688
47.8593,0.2673
47.9212,0.2529
47.9831,0.25
48.045,0.263
48.1069,0.2645
48.1689,0.2269
48.2308,0.2052
48.2927,0.2514
48.3546,0.3854
48.4165,0.3988
48.9118,0.4321
49.0976,0.2572
49.1595,0.5404
49.2214,0.552
49.6548,0.1647
49.7167,0.3266
49.7786,0.2153
49.8405,0.3763
49.9024,0.3858
49.9644,0.4321
50.1501,0.316
50.212,0.2919
50.2739,0.2832
50.3358,0.2269
50.3977,0.2442
50.4597,0.2558
50.5216,0.1517
50.5835,0.3382
50.6454,0.3396
50.8931,0.1358
50.955,0.1936
51.0169,0.1752
51.0788,0.1792
51.1407,0.2139
51.2026,0.2283
51.2645,0.2312
51.3265,0.2905
51.3884,0.2702
51.4503,0.2081
51.5122,0.351
51.5741,0.3627
51.636,0.4032
51.9456,0.2702
52.0075,0.2341
52.0694,0.2746
52.1313,0.2934
52.1932,0.2919
52.2552,0.2269
52.3171,0.1431
52.379,0.1431
52.4409,0.1329
52.5028,0.1532
52.5647,0.3425
52.6266,0.405
52.7505,0.159
52.8124,0.1647
52.8743,0.1691
52.9362,0.2876
52.9981,0.2919
53.06,0.2775
53.122,0.2457
53.1839,0.3034
53.2458,0.3818
53.3077,0.3858
53.5553,0.2182
53.6173,0.3772
53.6792,0.4191
53.7411,0.3165
53.803,0.1734
53.8649,0.1734
53.9268,0.1705
53.9887,0.3121
54.0507,0.3208
54.1126,0.3483
54.3602,0.1691
54.4221,0.2514
54.4841,0.4263
54.546,0.4263
54.8555,0.2587
54.9174,0.2647
54.9794,0.237
55.0413,0.2355
55.1032,0.2197
55.1651,0.2977
55.227,0.2948
55.2889,0.1445
55.3508,0.2211
55.4128,0.2225
55.4747,0.2601
55.5366,0.2876
55.5985,0.2298
55.6604,0.302
55.7223,0.3454
55.7842,0.3235
55.8462,0.3453
55.9081,0.3546
56.1557,0.294
56.2176,0.4272
56.2795,0.4187
56.3415,0.4187
56.5891,0.2557
56.651,0.1686
56.7129,0.2373
56.7749,0.2905
56.8368,0.289
57.0844,0.2295
57.1463,0.2379
57.2083,0.2466
57.2702,0.31
57.3321,0.3485
57.394,0.3848
57.5178,0.2713
57.5797,0.2584
57.6417,0.2438
57.7036,0.1936
57.7655,0.1546
57.8274,0.0983
57.8893,0.2746
57.9512,0.2746
58.137,0.263
58.1989,0.1951
58.2608,0.2299
58.3227,0.2529
58.3846,0.2572
58.4465,0.2572
58.5084,0.276
58.5704,0.1705
58.6323,0.1726
58.6942,0.4624
58.7561,0.461
59.0657,0.2038
59.1276,0.1561
59.1895,0.1452
59.2514,0.1228
59.3133,0.1951
59.3752,0.2023
59.4371,0.3251
59.4991,0.3367
59.561,0.3367
59.8086,0.2543
59.8705,0.302
59.9325,0.2934
59.9944,0.2688
60.0563,0.2616
60.1182,0.2731
60.1801,0.2731
60.4278,0.3931
60.4897,0.3974
60.5516,0.3107
60.6135,0.4118
60.6754,0.4249
60.7373,0.3672
60.7992,0.2081
60.8612,0.1625
60.9231,0.396
61.2326,0.3757
61.2946,0.2081
61.3565,0.2081
61.4184,0.2139
61.4803,0.1732
61.5422,0.1604
61.6041,0.1784
61.666,0.2428
61.728,0.2428
61.7899,0.1864
61.8518,0.2789
61.9137,0.3512
61.9756,0.2731
62.0375,0.3208
62.0994,0.3237
62.1614,0.3176
62.2233,0.2197
62.2852,0.2283
62.3471,0.2384
62.409,0.414
62.4709,0.4639
62.5328,0.4624
62.9043,0.146
62.9662,0.2558
63.0281,0.2355
63.0901,0.2139
63.152,0.1474
63.2139,0.3627
63.2758,0.3642
63.3377,0.3006
63.3996,0.2702
63.5854,0.5145
63.833,0.1893
63.8949,0.2066
63.9568,0.2731
64.0188,0.2941
64.3283,0.1144
64.3902,0.2355
64.4522,0.237
64.5141,0.3823
64.576,0.3916
64.6379,0.3006
65.0094,0.4408
65.0713,0.3887
65.1332,0.3902
65.5047,0.3064
65.5666,0.2514
65.6285,0.1994
65.6904,0.2737
65.7523,0.3309
65.8762,0.2568
65.9381,0.1821
66.0,0.3988
66.0619,0.4017
66.1238,0.6358
