Time (s),Motion Intensity
0.0,0.532
0.0619,0.5457
0.1238,0.557
0.1857,0.492
0.2477,0.4599
0.3096,0.4502
0.3715,0.4689
0.4334,0.471
0.4953,0.466
0.5572,0.4936
0.6191,0.4658
0.6811,0.4618
0.743,0.477
0.8049,0.4886
0.8668,0.8316
0.9287,0.7971
0.9906,0.7514
1.0525,0.7486
6.3771,0.0679
6.439,0.1691
6.5009,0.1691
6.5629,0.1561
6.6248,0.1127
6.6867,0.1965
6.7486,0.2139
6.8105,0.2124
6.8724,0.4234
6.9343,0.4249
7.182,0.172
7.2439,0.219
7.3058,0.2486
7.3677,0.2673
7.4296,0.2717
7.4916,0.3916
7.5535,0.4075
7.8011,0.4538
7.863,0.4422
7.925,0.2731
7.9869,0.2731
8.1107,0.211
8.1726,0.3064
8.2345,0.3064
8.2964,0.3586
8.3583,0.4639
8.9156,0.2009
8.9775,0.2225
9.0394,0.2211
9.1013,0.2197
9.1632,0.2182
9.2251,0.3136
9.2871,0.3136
9.4728,0.1618
9.5347,0.1604
9.5966,0.1835
9.6585,0.2139
9.7205,0.2486
9.7824,0.4408
9.8443,0.409
9.9062,0.4075
9.9681,0.2587
10.03,0.2384
10.0919,0.3837
10.1538,0.4118
10.2158,0.3454
10.5253,0.3338
10.773,0.3801
10.8349,0.3642
10.8968,0.5621
11.5159,0.2991
11.5779,0.3659
11.6398,0.3685
11.7017,0.3757
11.9493,0.153
12.0113,0.1965
12.0732,0.2731
12.1351,0.2645
12.197,0.2616
12.2589,0.1633
12.3208,0.1662
12.3827,0.2832
12.4447,0.2861
12.5066,0.255
12.5685,0.2081
12.6304,0.2095
12.6923,0.3203
12.7542,0.3425
12.8161,0.3454
13.0638,0.3078
13.1257,0.3772
13.1876,0.3363
13.2495,0.2124
13.3114,0.2182
13.3734,0.341
13.4353,0.3584
13.4972,0.2694
13.5591,0.2056
13.621,0.2327
13.6829,0.2327
13.7448,0.2355
13.8068,0.2355
13.8687,0.2384
13.9306,0.224
13.9925,0.1416
14.0544,0.1431
14.1163,0.1749
14.1782,0.2321
14.2402,0.2919
14.3021,0.2514
14.364,0.1879
14.4259,0.1793
14.4878,0.1835
14.5497,0.2542
14.6116,0.2601
14.6735,0.2471
14.7355,0.2182
14.7974,0.2746
14.8593,0.2832
14.9212,0.2753
14.9831,0.2616
15.045,0.2905
15.1069,0.3035
15.1689,0.354
15.2308,0.3858
15.5403,0.2818
15.6023,0.2775
15.6642,0.1965
15.7261,0.2182
15.788,0.2254
15.8499,0.2442
15.9118,0.2066
15.9737,0.2934
16.0356,0.2471
16.0976,0.2457
16.1595,0.2688
16.2214,0.2991
16.2833,0.2991
16.531,0.2399
16.6548,0.237
16.7167,0.2298
16.7786,0.2298
16.8405,0.2572
16.9024,0.1806
16.9644,0.2457
17.0263,0.2269
17.0882,0.1474
17.1501,0.198
17.212,0.2471
17.2739,0.3656
17.3358,0.3858
17.3977,0.3367
17.5216,0.2038
17.6454,0.159
17.7073,0.1618
17.7692,0.1142
17.8311,0.1864
17.8931,0.2211
17.955,0.1621
18.0169,0.2139
18.0788,0.1951
18.1407,0.2327
18.2026,0.2341
18.3884,0.185
18.4503,0.2803
18.5122,0.4017
18.8218,0.2775
18.8837,0.1373
18.9456,0.1445
19.0075,0.2572
19.0694,0.2632
19.1313,0.2645
19.1932,0.2023
19.2552,0.1676
19.3171,0.1084
19.379,0.1122
19.4409,0.1069
19.5028,0.2038
19.5647,0.1662
19.6266,0.1647
19.6886,0.2211
19.7505,0.3353
19.8124,0.2659
19.8743,0.2384
19.9362,0.1994
19.9981,0.1994
20.06,0.1387
20.122,0.2132
20.1839,0.4379
20.2458,0.4292
20.3077,0.345
20.3696,0.1609
20.4315,0.2789
20.4934,0.4422
20.5553,0.3613
20.7411,0.2327
20.803,0.2327
20.9887,0.289
21.0507,0.2572
21.1126,0.3048
21.4221,0.1705
21.4841,0.1705
21.546,0.2355
21.6079,0.25
21.6698,0.2312
21.7317,0.2529
21.7936,0.2861
21.8555,0.2861
22.3508,0.2399
22.4128,0.2616
22.4747,0.211
22.5366,0.1676
22.5985,0.2919
22.6604,0.3829
22.7223,0.3844
22.7842,0.2616
22.8462,0.1662
22.9081,0.2457
22.97,0.2457
23.0319,0.3425
23.0938,0.3121
23.1557,0.2977
23.2176,0.1055
23.2795,0.2384
23.3415,0.2413
23.4034,0.2876
23.4653,0.2702
23.5272,0.2782
23.5891,0.1908
23.651,0.1893
23.7129,0.1705
23.7749,0.1691
23.8368,0.1488
23.8987,0.2558
23.9606,0.2471
24.0225,0.3121
24.2702,0.3049
24.3321,0.2962
24.5797,0.1373
24.6417,0.2283
24.7036,0.185
24.7655,0.1749
24.8274,0.2081
24.8893,0.224
24.9512,0.2614
25.0131,0.2269
25.075,0.2832
25.137,0.2847
25.3227,0.172
25.3846,0.1171
25.4465,0.2514
25.5084,0.2543
25.7561,0.2312
25.818,0.2312
25.8799,0.3309
25.9418,0.3613
26.0038,0.3483
26.1895,0.2168
26.3752,0.2269
26.4371,0.2442
26.4991,0.2457
26.561,0.2457
26.7467,0.146
26.8086,0.2009
26.8705,0.1749
26.9325,0.2371
26.9944,0.3237
27.0563,0.3887
27.1182,0.315
27.1801,0.237
27.242,0.2124
27.3039,0.2529
27.3659,0.3049
27.4897,0.3545
27.5516,0.3454
27.9231,0.3844
28.1707,0.2842
28.4184,0.2962
28.4803,0.3309
28.5422,0.2514
28.9756,0.1777
29.0375,0.1777
29.0994,0.2124
29.1614,0.289
29.2233,0.289
29.2852,0.2443
29.3471,0.328
29.409,0.328
30.3377,0.2818
30.5854,0.104
30.6473,0.1431
30.7092,0.3889
30.7711,0.3786
31.5141,0.1911
31.576,0.1488
31.6379,0.2471
31.6998,0.2486
31.7617,0.2803
31.8236,0.1785
31.8856,0.159
31.9475,0.1358
32.0094,0.1749
32.0713,0.2684
32.1332,0.2789
32.1951,0.2355
32.257,0.1402
32.3189,0.1691
32.3809,0.2009
32.4428,0.2399
32.5047,0.276
32.5666,0.2428
32.6285,0.2428
32.6904,0.1474
32.7523,0.172
32.8143,0.1633
32.8762,0.1618
32.9381,0.1402
33.0,0.2124
33.0619,0.263
33.1238,0.3555
33.1857,0.3195
33.2477,0.2948
33.3096,0.3079
33.3715,0.3223
33.6191,0.2471
33.6811,0.1243
33.743,0.3512
33.8049,0.3786
34.0525,0.3382
34.3002,0.2746
34.3621,0.2341
34.424,0.2341
34.4859,0.4017
34.5478,0.487
34.7336,0.2139
34.7955,0.159
34.8574,0.0983
34.9193,0.1286
34.9812,0.1647
35.0432,0.1691
35.1051,0.1387
35.167,0.0795
35.2289,0.0882
35.2908,0.2673
35.3527,0.2688
35.4146,0.2962
35.4765,0.1604
35.5385,0.1084
35.6004,0.1734
35.6623,0.1864
35.7242,0.289
35.7861,0.2905
35.9719,0.1908
36.0338,0.2124
36.0957,0.211
36.1576,0.3107
36.2195,0.2861
36.4053,0.2168
36.4672,0.2153
36.5291,0.1806
36.591,0.1012
36.6529,0.0896
36.7148,0.1358
36.7767,0.3728
36.8386,0.3801
36.9006,0.4003
37.0244,0.2341
37.2101,0.1705
37.272,0.0968
37.334,0.1156
37.3959,0.1445
37.4578,0.2413
37.5197,0.2413
37.5816,0.2991
37.6435,0.2616
37.9531,0.2977
38.015,0.2717
38.0769,0.1532
38.1388,0.276
38.2008,0.3815
38.2627,0.3433
38.3246,0.3121
38.3865,0.2327
38.4484,0.2568
38.6961,0.211
38.758,0.1864
38.8199,0.2254
38.8818,0.2558
38.9437,0.3121
39.0056,0.3092
39.0675,0.25
39.1295,0.2023
39.1914,0.4422
39.2533,0.448
39.5009,0.276
39.6248,0.3353
39.6867,0.4436
39.7486,0.3078
39.8105,0.2572
39.8724,0.1662
39.9343,0.2716
39.9962,0.2832
40.0582,0.2905
40.1201,0.2384
40.182,0.2428
40.2439,0.2847
40.3058,0.3064
40.3677,0.2587
40.4296,0.2283
40.4916,0.1329
40.5535,0.1561
40.6154,0.1604
40.6773,0.1821
40.7392,0.1835
40.8011,0.2601
40.863,0.3627
40.925,0.3627
41.2345,0.2916
41.2964,0.3179
41.3583,0.2847
41.4203,0.1821
41.4822,0.1561
41.5441,0.1777
41.606,0.2139
41.6679,0.2009
41.7298,0.286
41.7917,0.2919
41.8537,0.3106
42.1632,0.2703
42.2251,0.1821
42.2871,0.2197
42.349,0.2139
42.4109,0.1965
42.4728,0.2413
42.5347,0.3078
42.5966,0.3107
42.7205,0.3078
42.7824,0.2818
43.1538,0.2378
43.2158,0.2211
43.2777,0.2254
43.3396,0.2197
43.4015,0.4235
43.4634,0.5188
43.5253,0.5173
43.7111,0.2789
43.773,0.2413
43.8349,0.1532
43.8968,0.1776
43.9587,0.237
44.0206,0.2428
44.0826,0.2601
44.1445,0.263
44.2064,0.2659
44.3921,0.3194
44.5779,0.224
44.6398,0.276
44.7017,0.2384
44.7636,0.2197
44.8255,0.23
44.8874,0.2486
44.9493,0.2601
45.0113,0.159
45.0732,0.211
45.1351,0.3916
45.197,0.4321
45.2589,0.4147
45.3208,0.3064
45.3827,0.2659
45.4447,0.2645
45.5066,0.2442
45.5685,0.1994
45.6304,0.1908
45.6923,0.4335
45.7542,0.4884
46.1876,0.2139
46.2495,0.2124
46.3114,0.1879
46.3734,0.2649
46.4353,0.4147
46.4972,0.4306
46.5591,0.3996
46.8068,0.2918
46.8687,0.2847
46.9306,0.3309
46.9925,0.2746
47.0544,0.2746
47.1163,0.2327
47.1782,0.3049
47.2402,0.3194
47.3021,0.3179
47.364,0.2168
47.4259,0.4061
47.4878,0.4046
47.7355,0.1691
47.7974,0.1604
47.8593,0.1488
47.9212,0.2168
47.9831,0.4971
48.045,0.4118
48.5403,0.1561
48.6023,0.3555
48.6642,0.3757
48.9118,0.3266
48.9737,0.4234
49.0356,0.433
49.0976,0.4292
49.1595,0.3618
49.3452,0.2139
49.4071,0.2124
49.469,0.1676
49.531,0.159
49.5929,0.1546
49.6548,0.1199
49.7167,0.198
49.7786,0.2009
49.8405,0.2023
49.9024,0.1404
49.9644,0.1605
50.0263,0.1676
50.0882,0.185
50.1501,0.1864
50.212,0.1951
50.2739,0.1951
50.3358,0.1662
50.3977,0.1908
50.4597,0.2605
50.5216,0.3165
50.5835,0.4509
50.6454,0.4523
50.7073,0.4075
50.7692,0.3309
50.8311,0.1879
50.8931,0.1806
50.955,0.1532
51.0169,0.2095
51.0788,0.2124
51.1407,0.1517
51.2026,0.2103
51.2645,0.4205
51.3265,0.4494
51.7598,0.3584
51.8218,0.3512
51.8837,0.1705
51.9456,0.2393
52.0075,0.2731
52.0694,0.3468
52.1313,0.2514
52.1932,0.2442
52.2552,0.1936
52.3171,0.1951
52.379,0.1965
52.4409,0.1879
52.5028,0.1864
52.5647,0.0925
52.6266,0.0997
52.6886,0.146
52.7505,0.2486
52.8124,0.2818
52.8743,0.2355
52.9362,0.3468
52.9981,0.3468
53.06,0.3425
53.122,0.2659
53.1839,0.2659
53.2458,0.2464
53.3077,0.1488
53.3696,0.1373
53.4315,0.221
53.4934,0.224
53.5553,0.315
53.6173,0.315
53.6792,0.172
53.7411,0.1691
53.803,0.1098
53.8649,0.1951
53.9268,0.2471
53.9887,0.2442
54.0507,0.2254
54.1126,0.2298
54.1745,0.2384
54.2364,0.2399
54.2983,0.2587
54.3602,0.2283
54.4221,0.1749
54.4841,0.1387
54.546,0.2803
54.6079,0.2789
54.6698,0.2659
54.7317,0.2673
54.7936,0.3396
54.8555,0.315
54.9174,0.3036
54.9794,0.2295
55.0413,0.25
55.1032,0.333
55.1651,0.3338
55.227,0.2905
55.2889,0.3107
55.3508,0.3064
55.4128,0.3049
55.4747,0.2558
55.5366,0.2529
55.5985,0.3931
55.6604,0.422
55.9081,0.2376
55.97,0.2401
56.0319,0.3436
56.0938,0.3731
56.1557,0.3731
56.2176,0.2779
56.2795,0.2973
56.3415,0.2763
56.4034,0.2659
56.4653,0.3203
56.5272,0.3266
56.5891,0.2901
56.651,0.1723
56.7129,0.2049
56.7749,0.2287
56.8368,0.2671
56.8987,0.4411
56.9606,0.4266
57.0225,0.4252
57.2083,0.1713
57.2702,0.1988
57.3321,0.146
57.394,0.1437
57.4559,0.1739
57.5178,0.3102
57.5797,0.2899
57.6417,0.2101
57.7036,0.2038
57.7655,0.2543
57.8274,0.2139
57.8893,0.2124
57.9512,0.2616
58.0131,0.2601
58.075,0.328
58.137,0.3194
58.1989,0.3092
58.3227,0.1676
58.3846,0.185
58.4465,0.1951
58.5084,0.2066
58.5704,0.217
58.6323,0.3309
58.6942,0.4653
58.7561,0.4234
58.818,0.3555
58.8799,0.2616
58.9418,0.172
59.0038,0.3483
59.0657,0.3555
59.3133,0.263
59.3752,0.2688
59.4371,0.3728
59.6848,0.2543
59.7467,0.3136
59.8086,0.2225
59.8705,0.2095
59.9325,0.1792
59.9944,0.3208
60.0563,0.3324
60.1182,0.3154
60.1801,0.4835
60.4897,0.2124
60.5516,0.2529
60.6135,0.1908
60.6754,0.1994
60.7373,0.2124
60.7992,0.1511
60.8612,0.2023
60.9231,0.2052
60.985,0.4639
61.0469,0.4639
61.1088,0.2977
61.1707,0.2688
61.2326,0.2977
61.2946,0.2876
61.3565,0.1546
61.4184,0.1402
61.4803,0.1951
61.5422,0.1922
61.6041,0.1452
61.666,0.292
61.728,0.328
61.7899,0.3338
61.8518,0.2691
61.9137,0.2587
62.0994,0.3107
62.1614,0.3136
62.2852,0.2081
62.3471,0.2254
62.409,0.1821
62.4709,0.1864
62.5328,0.1999
62.5947,0.3598
62.6567,0.3584
62.8424,0.2414
62.9043,0.2023
62.9662,0.1994
63.0281,0.0925
63.0901,0.1431
63.152,0.2442
63.2139,0.3035
63.2758,0.3309
63.3377,0.3324
63.3996,0.3251
63.4615,0.1821
63.5235,0.1561
63.5854,0.1734
63.6473,0.2471
63.7092,0.2832
63.7711,0.2341
63.833,0.2312
63.8949,0.1272
63.9568,0.2717
64.0188,0.2746
64.0807,0.264
64.1426,0.2572
64.2045,0.2514
64.2664,0.2847
64.3283,0.2861
64.5141,0.104
64.576,0.1792
64.6379,0.3092
64.6998,0.328
64.7617,0.3165
64.8236,0.2124
64.8856,0.3324
64.9475,0.3295
65.1951,0.3165
65.257,0.2558
65.3189,0.4032
65.3809,0.4379
65.6904,0.1705
65.7523,0.1777
65.8143,0.1777
65.8762,0.2737
65.9381,0.3497
66.0,0.4176
66.0619,0.3439
66.1238,0.2702
