Time (s),Motion Intensity
0.0,0.532
0.0619,0.5457
0.1238,0.557
0.1857,0.492
0.2477,0.4599
0.3096,0.4502
0.3715,0.4689
0.4334,0.471
0.4953,0.466
0.5572,0.4936
0.6191,0.4658
0.6811,0.4618
0.743,0.477
0.8049,0.4886
0.8668,0.8316
0.9287,0.7971
0.9906,0.7514
1.0525,0.7486
6.3771,0.1821
6.439,0.1199
6.5009,0.1171
6.5629,0.2023
6.6248,0.2139
6.6867,0.2543
6.7486,0.2095
6.8105,0.2197
6.8724,0.2645
6.9343,0.289
6.9962,0.2803
7.0582,0.2023
7.1201,0.14
7.182,0.1214
7.2439,0.1503
7.3058,0.1517
7.3677,0.1647
7.4296,0.1387
7.4916,0.1963
7.5535,0.2283
7.6154,0.2197
7.6773,0.1575
7.7392,0.1575
7.8011,0.1749
7.863,0.0896
7.925,0.1127
7.9869,0.1387
8.0488,0.1416
8.1107,0.1806
8.1726,0.2139
8.2345,0.211
8.2964,0.2168
8.3583,0.1329
8.4203,0.2172
8.4822,0.2312
8.5441,0.3107
8.606,0.1806
8.6679,0.1806
8.7298,0.1329
8.7917,0.0997
8.8537,0.1445
8.9156,0.1445
8.9775,0.1836
9.0394,0.3165
9.1013,0.3512
9.1632,0.3512
9.2251,0.1633
9.2871,0.1749
9.349,0.1763
9.4109,0.2139
9.4728,0.2066
9.5347,0.159
9.5966,0.1517
9.6585,0.1142
9.7205,0.1431
9.7824,0.2341
9.8443,0.2341
9.9062,0.1922
9.9681,0.1829
10.03,0.1821
10.0919,0.2139
10.1538,0.1445
10.2158,0.1373
10.2777,0.1864
10.3396,0.1879
10.4015,0.1584
10.4634,0.1026
10.5253,0.2422
10.5872,0.3988
11.0826,0.1445
11.1445,0.1445
11.2064,0.1199
11.2683,0.1214
11.3302,0.1228
11.3921,0.0824
11.454,0.0954
11.5159,0.0939
11.5779,0.3006
11.6398,0.3107
11.7017,0.3121
11.7636,0.172
11.8255,0.2673
11.8874,0.3874
11.9493,0.3829
12.0113,0.2428
12.0732,0.224
12.1351,0.159
12.197,0.237
12.2589,0.2746
12.3208,0.2818
12.3827,0.2789
12.5066,0.1777
12.5685,0.1424
12.6304,0.1069
12.6923,0.2095
12.7542,0.211
12.8161,0.2139
12.878,0.1358
12.94,0.1445
13.0019,0.1286
13.0638,0.1301
13.1257,0.1113
13.1876,0.1749
13.2495,0.224
13.3114,0.224
13.3734,0.2211
13.4353,0.0939
13.4972,0.0983
13.5591,0.1272
13.621,0.1243
13.6829,0.2702
13.7448,0.289
13.8068,0.2991
13.8687,0.2211
13.9306,0.159
13.9925,0.1474
14.0544,0.1908
14.1163,0.1893
14.1782,0.1708
14.2402,0.1431
14.3021,0.0939
14.364,0.1879
14.4259,0.1893
14.4878,0.2124
14.5497,0.3526
14.6116,0.3251
14.7974,0.2095
14.8593,0.3526
14.9212,0.3324
15.2927,0.2225
15.3546,0.1994
15.4165,0.3056
15.4784,0.3092
15.788,0.1936
15.8499,0.1994
15.9118,0.1734
15.9737,0.1662
16.0356,0.198
16.0976,0.198
16.1595,0.1329
16.2214,0.1416
16.2833,0.1488
16.3452,0.1286
16.4071,0.2088
16.469,0.3309
16.531,0.3584
16.5929,0.2907
16.7167,0.1431
16.7786,0.1575
16.8405,0.1575
16.9024,0.2032
16.9644,0.2211
17.0263,0.2225
17.0882,0.121
17.1501,0.091
17.212,0.0838
17.2739,0.1171
17.3358,0.1185
17.3977,0.2572
17.4597,0.2587
17.5216,0.25
17.5835,0.2162
17.7073,0.2009
17.7692,0.2139
17.8311,0.3049
17.8931,0.3206
17.955,0.2514
18.0169,0.2486
18.0788,0.2572
18.1407,0.2572
18.2026,0.2804
18.2645,0.1416
18.3265,0.1272
18.3884,0.2103
18.4503,0.2197
18.5122,0.2211
18.5741,0.1893
18.636,0.198
18.6979,0.4581
18.7598,0.4451
18.9456,0.2168
19.0075,0.2197
19.0694,0.3757
19.1313,0.2355
19.1932,0.2254
19.2552,0.1113
19.3171,0.1142
19.379,0.1171
19.4409,0.1431
19.5028,0.1994
19.5647,0.2211
19.6266,0.1647
19.6886,0.1431
19.7505,0.0621
19.8124,0.0896
19.8743,0.1127
19.9362,0.1199
19.9981,0.1171
20.06,0.1156
20.122,0.1835
20.1839,0.2529
20.2458,0.3006
20.3077,0.3584
20.3696,0.3584
20.4315,0.2746
20.4934,0.1792
20.5553,0.1171
20.6173,0.1012
20.6792,0.0997
20.7411,0.1156
20.803,0.1127
20.8649,0.1026
20.9268,0.1734
20.9887,0.2313
21.0507,0.3728
21.1126,0.4061
21.3602,0.1387
21.4221,0.2587
21.4841,0.3121
21.546,0.2702
21.6079,0.1647
21.6698,0.1329
21.7317,0.1922
21.7936,0.1835
21.8555,0.159
21.9174,0.1358
21.9794,0.1286
22.0413,0.2818
22.1032,0.2832
22.1651,0.2832
22.227,0.2645
22.2889,0.2659
22.4128,0.1922
22.4747,0.1865
22.5366,0.0968
22.5985,0.0694
22.6604,0.1012
22.7223,0.104
22.7842,0.0939
22.8462,0.0939
22.9081,0.0954
22.97,0.159
23.0319,0.2081
23.0938,0.1879
23.1557,0.1373
23.2176,0.1069
23.2795,0.0838
23.3415,0.0896
23.4034,0.1069
23.4653,0.1402
23.5272,0.1084
23.5891,0.2095
23.651,0.2803
23.7129,0.2775
23.7749,0.2746
23.8368,0.1488
23.8987,0.1575
23.9606,0.2283
24.0225,0.2298
24.0844,0.2486
24.1463,0.1879
24.2083,0.0997
24.2702,0.0723
24.3321,0.0578
24.394,0.2068
24.4559,0.211
24.5178,0.2659
24.5797,0.1618
24.6417,0.1243
24.7036,0.1373
24.7655,0.3309
24.8274,0.3396
25.137,0.341
25.1989,0.3482
25.2608,0.2514
25.3227,0.143
25.3846,0.1445
25.4465,0.1705
25.5084,0.104
25.5704,0.1113
25.6323,0.1113
25.6942,0.1055
25.7561,0.1373
25.818,0.1546
25.8799,0.1228
25.9418,0.146
26.0038,0.2543
26.0657,0.2702
26.1276,0.2066
26.1895,0.2095
26.2514,0.3324
26.3133,0.3613
26.3752,0.2334
26.4371,0.1763
26.4991,0.1546
26.561,0.1844
26.6229,0.2197
26.6848,0.1864
26.7467,0.172
26.8086,0.1604
26.8705,0.172
26.9325,0.2066
26.9944,0.198
27.0563,0.1965
27.1182,0.1633
27.1801,0.185
27.242,0.1908
27.3039,0.354
27.3659,0.3208
27.4278,0.3136
27.6754,0.0756
27.7373,0.078
27.7992,0.1922
27.8612,0.1951
27.9231,0.2095
27.985,0.0968
28.0469,0.0925
28.1088,0.0939
28.1707,0.2844
28.2326,0.3957
28.2946,0.3873
28.728,0.1908
28.7899,0.1474
28.8518,0.1994
28.9137,0.2009
28.9756,0.2283
29.0375,0.2587
29.0994,0.2601
29.1614,0.2349
29.2233,0.1994
29.2852,0.1994
29.3471,0.2254
29.409,0.1561
29.4709,0.1575
29.5328,0.2038
29.5947,0.198
29.6567,0.1922
29.7186,0.1488
29.7805,0.146
29.8424,0.1445
29.9043,0.1416
29.9662,0.1402
30.0281,0.1373
30.0901,0.3642
30.152,0.3931
30.3996,0.2139
30.4615,0.2775
30.5235,0.2789
30.5854,0.3425
30.6473,0.2139
30.7092,0.1966
30.7711,0.1163
30.833,0.1168
30.8949,0.1185
30.9568,0.1171
31.0188,0.185
31.0807,0.1821
31.1426,0.2197
31.2045,0.2428
31.2664,0.2673
31.3283,0.3136
31.3902,0.2803
31.7617,0.126
31.8236,0.1329
31.8856,0.146
31.9475,0.1281
32.0094,0.1315
32.0713,0.1806
32.1332,0.2298
32.1951,0.2312
32.257,0.2457
32.3189,0.1763
32.3809,0.1416
32.4428,0.1676
32.5047,0.1691
32.5666,0.1716
32.6285,0.1188
32.6904,0.1431
32.7523,0.1301
32.8143,0.1301
32.8762,0.1084
32.9381,0.1084
33.0,0.1994
33.0619,0.1936
33.1238,0.179
33.1857,0.1185
33.2477,0.2021
33.3096,0.2803
33.3715,0.2616
33.4334,0.1722
33.5572,0.1315
33.6191,0.2327
33.6811,0.2457
33.743,0.1503
33.8049,0.1431
33.8668,0.1185
33.9287,0.1185
33.9906,0.1315
34.0525,0.1142
34.1144,0.1633
34.1764,0.1257
34.2383,0.1171
34.3002,0.1965
34.3621,0.2095
34.424,0.1488
34.4859,0.1358
34.5478,0.0968
34.6098,0.1199
34.6717,0.1199
34.7336,0.2009
34.7955,0.1777
34.8574,0.0925
34.9193,0.0812
34.9812,0.0694
35.0432,0.2013
35.1051,0.2298
35.167,0.2312
35.2289,0.2702
35.3527,0.123
35.4146,0.091
35.4765,0.078
35.5385,0.1026
35.6004,0.1348
35.6623,0.1756
35.7242,0.1575
35.7861,0.1854
35.848,0.1777
35.9099,0.1777
35.9719,0.0694
36.0338,0.1373
36.0957,0.1575
36.1576,0.1402
36.2195,0.0824
36.2814,0.1257
36.3433,0.1532
36.4053,0.1402
36.4672,0.1678
36.5291,0.2571
36.591,0.2442
36.6529,0.1835
36.7767,0.2833
36.8386,0.3092
36.9006,0.2717
37.0863,0.1604
37.1482,0.1546
37.2101,0.1503
37.272,0.1262
37.334,0.1228
37.3959,0.1214
37.4578,0.0853
37.5197,0.2453
37.5816,0.3829
37.6435,0.3555
37.8912,0.2066
37.9531,0.2225
38.015,0.1578
38.0769,0.3988
38.3865,0.1084
38.4484,0.0853
38.5103,0.168
38.5722,0.2717
38.6341,0.3324
38.6961,0.2782
38.758,0.25
38.8199,0.0867
38.8818,0.1142
38.9437,0.1214
39.0056,0.1879
39.0675,0.1691
39.1295,0.1604
39.1914,0.0853
39.2533,0.2095
39.3152,0.2124
39.3771,0.2775
39.439,0.3194
39.5009,0.2789
39.6867,0.1113
39.7486,0.1142
39.8105,0.1084
39.8724,0.1199
39.9343,0.1199
39.9962,0.2356
40.0582,0.2673
40.1201,0.2702
40.3058,0.1676
40.3677,0.1864
40.4296,0.0853
40.4916,0.1156
40.5535,0.0968
40.6154,0.0968
40.6773,0.091
40.7392,0.1179
40.8011,0.1445
40.863,0.1344
40.925,0.1806
40.9869,0.1835
41.0488,0.2355
41.1107,0.2023
41.1726,0.1835
41.2345,0.0477
41.2964,0.1532
41.3583,0.185
41.4203,0.2124
41.4822,0.1734
41.5441,0.1516
41.606,0.1214
41.6679,0.1074
41.7298,0.1126
41.7917,0.1387
41.8537,0.1618
41.9156,0.1474
41.9775,0.1474
42.0394,0.1445
42.1013,0.159
42.1632,0.2818
42.2251,0.237
42.2871,0.2182
42.349,0.3801
42.6585,0.1472
42.7205,0.1503
42.7824,0.1618
42.8443,0.0983
42.9062,0.2341
42.9681,0.2312
43.1538,0.1257
43.2158,0.185
43.2777,0.213
43.3396,0.2384
43.4015,0.2168
43.4634,0.172
43.5253,0.2139
43.5872,0.2066
43.6492,0.1127
43.7111,0.0853
43.773,0.1932
43.8349,0.2327
43.8968,0.2946
43.9587,0.2211
44.0206,0.2211
44.0826,0.2467
44.1445,0.2298
44.3302,0.2919
44.3921,0.198
44.454,0.1517
44.5159,0.2919
44.5779,0.2934
44.6398,0.3107
44.7636,0.1344
44.8255,0.1243
44.8874,0.0462
44.9493,0.1835
45.0113,0.237
45.0732,0.2688
45.1351,0.2351
45.197,0.1835
45.2589,0.1835
45.3208,0.315
45.3827,0.3165
45.4447,0.276
45.5685,0.1228
45.6304,0.1214
45.6923,0.1501
45.7542,0.2803
45.8161,0.3198
45.878,0.2632
45.94,0.1474
46.0019,0.1633
46.0638,0.1749
46.1257,0.1749
46.1876,0.211
46.2495,0.1936
46.3114,0.1763
46.3734,0.159
46.4353,0.1994
46.4972,0.1488
46.5591,0.1575
46.621,0.1272
46.6829,0.1157
46.7448,0.0939
46.8068,0.1936
46.8687,0.1792
46.9306,0.1618
46.9925,0.146
47.0544,0.1171
47.1163,0.1835
47.1782,0.2225
47.2402,0.1951
47.3021,0.1113
47.364,0.0939
47.4259,0.104
47.4878,0.2052
47.5497,0.2442
47.6116,0.2442
47.7974,0.0303
47.8593,0.0347
47.9212,0.1084
47.9831,0.1142
48.045,0.1228
48.1069,0.1409
48.1689,0.2746
48.4165,0.1546
48.4784,0.146
48.5403,0.1084
48.6023,0.1228
48.6642,0.1893
48.7261,0.1893
48.788,0.1806
48.8499,0.1561
48.9118,0.0708
48.9737,0.1449
49.0356,0.1546
49.0976,0.302
49.1595,0.3179
49.469,0.1315
49.531,0.1243
49.5929,0.1069
49.6548,0.25
49.7167,0.302
49.7786,0.3006
49.8405,0.2269
49.9024,0.1922
49.9644,0.0983
50.0263,0.1286
50.0882,0.2211
50.1501,0.25
50.212,0.2254
50.2739,0.1575
50.3358,0.2081
50.3977,0.2428
50.5216,0.2601
50.5835,0.2572
50.6454,0.1402
50.7073,0.1402
50.7692,0.1098
50.8311,0.1448
50.8931,0.2139
50.955,0.2514
51.0169,0.1561
51.0788,0.1546
51.1407,0.0954
51.2026,0.0954
51.2645,0.1416
51.3265,0.263
51.3884,0.2529
51.5741,0.1633
51.636,0.1156
51.6979,0.1503
51.7598,0.1402
51.8218,0.1315
51.8837,0.1546
51.9456,0.2471
52.0075,0.3988
52.0694,0.4003
52.2552,0.2182
52.3171,0.2182
52.379,0.2023
52.4409,0.1116
52.5028,0.1069
52.5647,0.1272
52.6266,0.1633
52.6886,0.1142
52.7505,0.1503
52.8124,0.1243
52.8743,0.1243
52.9362,0.0997
52.9981,0.1618
53.06,0.1647
53.122,0.211
53.1839,0.1995
53.2458,0.2399
53.3077,0.2876
53.803,0.104
53.8649,0.3165
53.9268,0.3064
54.1126,0.1777
54.1745,0.3518
54.2364,0.4205
54.6698,0.1257
54.7317,0.1777
54.7936,0.4032
54.8555,0.5477
55.1651,0.1604
55.227,0.1431
55.2889,0.1445
55.3508,0.1951
55.4128,0.185
55.4747,0.2066
55.5366,0.2731
55.5985,0.2384
55.6604,0.1358
55.7223,0.2514
55.7842,0.2598
55.8462,0.2458
55.9081,0.265
55.97,0.2994
56.2795,0.1852
56.3415,0.1757
56.4034,0.1396
56.4653,0.1304
56.5272,0.1198
56.5891,0.1198
56.651,0.1245
56.7129,0.1858
56.7749,0.1858
56.8368,0.1678
56.8987,0.1909
56.9606,0.2591
57.0225,0.3347
57.0844,0.3328
57.1463,0.3331
57.2083,0.3188
57.2702,0.2471
57.3321,0.2394
57.394,0.2086
57.4559,0.2554
57.5178,0.2224
57.5797,0.1717
57.6417,0.2461
57.7036,0.4017
57.7655,0.4494
57.8274,0.3945
58.0131,0.2587
58.075,0.2572
58.137,0.2197
58.1989,0.2968
58.2608,0.3583
58.5704,0.0983
58.6323,0.1908
58.6942,0.2543
58.7561,0.2543
58.818,0.1835
58.8799,0.2139
58.9418,0.1864
59.0038,0.1647
59.0657,0.1113
59.1276,0.065
59.1895,0.0766
59.2514,0.0882
59.3133,0.1306
59.3752,0.1445
59.4371,0.2168
59.4991,0.2009
59.561,0.1792
59.6229,0.3728
59.6848,0.3425
59.9325,0.3512
60.1801,0.1647
60.242,0.1431
60.3039,0.1908
60.3659,0.1922
60.4278,0.1811
60.4897,0.1633
60.5516,0.1488
60.6135,0.1427
60.6754,0.1199
60.7373,0.2725
60.7992,0.3827
61.1088,0.0824
61.1707,0.1431
61.2326,0.1806
61.2946,0.1691
61.3565,0.1199
61.4184,0.0795
61.4803,0.0766
61.5422,0.0838
61.6041,0.0853
61.666,0.0983
61.728,0.0925
61.7899,0.0679
61.8518,0.0955
61.9137,0.2182
61.9756,0.2168
62.0375,0.2355
62.2233,0.159
62.2852,0.3295
62.3471,0.3179
62.409,0.3271
62.4709,0.3873
62.5947,0.3049
62.6567,0.2673
62.7186,0.3396
62.7805,0.3396
63.0901,0.1488
63.152,0.4046
63.4615,0.1402
63.5235,0.1373
63.5854,0.1344
63.6473,0.0968
63.7092,0.1214
63.7711,0.3179
63.833,0.3627
64.0188,0.1864
64.0807,0.2817
64.1426,0.2948
64.2664,0.172
64.3283,0.1142
64.3902,0.1286
64.4522,0.4288
64.8856,0.1936
64.9475,0.1908
65.0094,0.2283
65.0713,0.2355
65.1332,0.237
65.1951,0.198
65.257,0.2124
65.3189,0.1922
65.3809,0.1922
65.4428,0.1951
65.5047,0.198
65.5666,0.1243
65.6285,0.1416
65.6904,0.1705
65.7523,0.1228
65.8143,0.1214
65.8762,0.1156
65.9381,0.1142
66.0,0.1662
66.0619,0.1821
66.1238,0.2948
