Time (s),Motion Intensity
0.0,0.532
0.0619,0.5457
0.1238,0.557
0.1857,0.492
0.2477,0.4599
0.3096,0.4502
0.3715,0.4689
0.4334,0.471
0.4953,0.466
0.5572,0.4936
0.6191,0.4658
0.6811,0.4618
0.743,0.477
0.8049,0.4886
0.8668,0.8316
0.9287,0.7971
0.9906,0.7514
1.0525,0.7486
6.3771,0.1228
6.439,0.2038
6.5009,0.2052
6.5629,0.2312
6.6248,0.1879
6.6867,0.2081
6.7486,0.2066
6.8105,0.1994
6.8724,0.3136
6.9343,0.3382
6.9962,0.2832
7.182,0.1734
7.2439,0.2717
7.3058,0.2052
7.3677,0.2659
7.4296,0.224
7.4916,0.1792
7.5535,0.1792
7.6154,0.1893
7.6773,0.1821
7.7392,0.2847
7.8011,0.2413
7.863,0.2413
8.2345,0.0578
8.2964,0.1474
8.3583,0.2442
8.4203,0.2442
8.4822,0.3194
8.5441,0.2168
8.606,0.2182
8.6679,0.2572
8.7298,0.2616
8.7917,0.2702
8.8537,0.2066
8.9156,0.0708
8.9775,0.0983
9.0394,0.1835
9.1013,0.2945
9.1632,0.2953
9.2251,0.2587
9.349,0.3035
9.4109,0.4176
9.4728,0.3422
9.5347,0.3064
9.5966,0.1185
9.6585,0.0896
9.7205,0.1509
9.7824,0.1647
9.8443,0.2637
9.9062,0.237
9.9681,0.2832
10.2158,0.1228
10.2777,0.0867
10.3396,0.0954
10.4015,0.2023
10.4634,0.1705
10.5253,0.1705
10.5872,0.1908
10.6492,0.1676
10.7111,0.2384
10.773,0.2746
10.8349,0.2653
10.8968,0.1951
10.9587,0.2298
11.0206,0.2457
11.0826,0.2471
11.2683,0.2298
11.3302,0.185
11.3921,0.1358
11.454,0.1344
11.5159,0.1951
11.5779,0.185
11.6398,0.3699
11.7017,0.3454
12.0113,0.1954
12.0732,0.2934
12.1351,0.341
12.197,0.4306
12.2589,0.4451
12.3208,0.3306
12.3827,0.2928
12.4447,0.3064
12.6304,0.2514
12.6923,0.2948
12.7542,0.2616
13.0019,0.3801
13.0638,0.3136
13.1257,0.2153
13.1876,0.1561
13.2495,0.2052
13.3114,0.2708
13.3734,0.2775
13.4353,0.2847
13.621,0.1517
13.6829,0.1199
13.7448,0.1351
13.8068,0.1546
13.8687,0.1951
13.9306,0.1676
13.9925,0.1691
14.0544,0.2066
14.1163,0.1879
14.1782,0.1625
14.2402,0.2685
14.3021,0.263
14.364,0.2676
14.4259,0.2934
14.7355,0.2197
14.7974,0.4711
15.045,0.3194
15.1069,0.2688
15.1689,0.219
15.2308,0.1474
15.2927,0.2601
15.3546,0.2327
15.4165,0.3309
15.4784,0.3338
15.788,0.198
15.8499,0.3006
16.0976,0.3258
16.1595,0.3049
16.2214,0.3049
16.531,0.1358
16.5929,0.2457
16.6548,0.2457
16.8405,0.2616
16.9024,0.2283
16.9644,0.2197
17.0263,0.1676
17.0882,0.2009
17.1501,0.1705
17.212,0.1835
17.2739,0.1373
17.3358,0.1994
17.3977,0.1994
17.4597,0.3042
17.5216,0.3309
18.0169,0.0809
18.0788,0.1243
18.1407,0.1488
18.2026,0.2399
18.2645,0.1936
18.3265,0.276
18.3884,0.2775
18.8837,0.2341
18.9456,0.2312
19.0075,0.2841
19.0694,0.2717
19.3171,0.1913
19.379,0.2081
19.4409,0.1806
19.5028,0.172
19.5647,0.2471
19.6266,0.2847
19.8124,0.4552
20.06,0.4205
20.3077,0.3382
20.3696,0.3642
20.4315,0.2711
20.4934,0.2355
20.5553,0.2139
20.6173,0.2153
20.6792,0.2471
21.2364,0.2023
21.2983,0.1676
21.3602,0.1272
21.4221,0.1575
21.4841,0.1835
21.546,0.2327
21.6079,0.2082
21.6698,0.1898
21.7317,0.0638
21.7936,0.0853
21.8555,0.3815
21.9174,0.3569
22.1651,0.0954
22.227,0.0954
22.2889,0.2431
22.3508,0.3555
22.4128,0.422
22.4747,0.2585
22.5985,0.2688
22.6604,0.2688
22.8462,0.1488
22.9081,0.1127
22.97,0.1127
23.0319,0.0983
23.0938,0.3324
23.1557,0.3324
23.5891,0.2457
23.651,0.2038
23.7129,0.146
23.7749,0.2168
23.8368,0.185
23.8987,0.2095
23.9606,0.2702
24.0225,0.2182
24.0844,0.2182
24.2702,0.2211
24.3321,0.1806
24.394,0.1503
24.4559,0.2355
24.5178,0.2702
24.5797,0.1893
24.6417,0.1896
24.7036,0.2572
24.7655,0.2341
24.8274,0.1575
24.8893,0.159
24.9512,0.318
25.0131,0.3584
25.4465,0.3295
25.5084,0.1879
25.5704,0.1806
25.6323,0.172
25.6942,0.1908
25.7561,0.1835
25.818,0.1821
25.8799,0.2182
25.9418,0.3555
26.0038,0.3627
26.0657,0.3397
26.1276,0.2717
26.1895,0.3497
26.2514,0.3699
26.3133,0.341
26.3752,0.2529
26.4371,0.2514
26.4991,0.2355
26.561,0.3251
26.6229,0.3237
26.8086,0.159
26.8705,0.1575
26.9325,0.2529
26.9944,0.2486
27.0563,0.2254
27.1182,0.1266
27.1801,0.4277
27.242,0.4292
27.3039,0.4176
27.4897,0.1705
27.5516,0.2264
27.6135,0.237
27.6754,0.2471
27.7373,0.1604
27.7992,0.237
27.8612,0.211
27.9231,0.2095
27.985,0.1098
28.0469,0.1763
28.1088,0.1908
28.1707,0.2746
28.2326,0.2905
28.2946,0.3165
28.3565,0.2384
28.4184,0.2115
28.4803,0.1841
28.5422,0.2066
28.6041,0.2095
28.666,0.1478
28.728,0.1373
28.7899,0.1344
28.8518,0.1576
28.9137,0.2977
28.9756,0.3027
29.0375,0.2335
29.0994,0.1922
29.1614,0.1647
29.2233,0.1402
29.2852,0.1329
29.3471,0.185
29.409,0.2081
29.4709,0.2139
29.5328,0.2341
29.5947,0.2269
29.6567,0.3223
29.7186,0.3223
29.7805,0.3179
29.9662,0.2529
30.0281,0.263
30.0901,0.2009
30.152,0.2038
30.2139,0.1763
30.2758,0.1662
30.3377,0.1676
30.3996,0.1546
30.4615,0.2066
30.5235,0.2095
30.5854,0.2081
30.6473,0.2153
30.7092,0.2616
30.7711,0.2587
30.833,0.2702
30.8949,0.2702
30.9568,0.2775
31.0807,0.2254
31.1426,0.3208
31.2045,0.3223
31.2664,0.2977
31.3283,0.2558
31.3902,0.2601
31.4522,0.3324
31.5141,0.3324
31.576,0.328
31.6379,0.2471
31.6998,0.2471
31.7617,0.2457
31.8236,0.1431
31.8856,0.1488
31.9475,0.2992
32.0094,0.2876
32.0713,0.2847
32.1332,0.224
32.1951,0.2673
32.257,0.2934
32.3189,0.2919
32.3809,0.2803
32.4428,0.3092
32.5047,0.1431
32.5666,0.1279
32.6285,0.1387
32.6904,0.1893
32.7523,0.1387
32.8143,0.1344
32.8762,0.2225
32.9381,0.224
33.0,0.2486
33.0619,0.3425
33.1238,0.3425
33.3096,0.3454
33.3715,0.3681
33.4334,0.3279
33.4953,0.1763
33.5572,0.2457
33.6191,0.2775
33.6811,0.2393
33.743,0.2225
33.8049,0.1965
33.8668,0.1691
33.9287,0.1806
33.9906,0.2962
34.0525,0.2859
34.1144,0.2529
34.1764,0.1879
34.2383,0.211
34.3002,0.2746
34.3621,0.3121
34.424,0.3136
34.4859,0.263
34.5478,0.2355
34.6098,0.1918
34.6717,0.2298
34.7336,0.2818
34.7955,0.2731
34.8574,0.1411
34.9193,0.1904
34.9812,0.2717
35.0432,0.25
35.1051,0.2355
35.167,0.1416
35.2289,0.2355
35.2908,0.2486
35.3527,0.3078
35.4146,0.3006
35.7242,0.3251
35.7861,0.3007
35.9099,0.1532
35.9719,0.1532
36.0338,0.1445
36.0957,0.2384
36.1576,0.2543
36.2195,0.25
36.2814,0.2269
36.3433,0.2355
36.4053,0.2225
36.4672,0.2558
36.5291,0.2558
36.591,0.2572
36.6529,0.409
36.7148,0.3699
36.9625,0.2124
37.0244,0.211
37.0863,0.1893
37.1482,0.2924
37.2101,0.409
37.5197,0.172
37.5816,0.3208
37.6435,0.3035
37.7054,0.2934
37.7674,0.1734
37.8293,0.172
37.8912,0.1431
37.9531,0.146
38.015,0.2153
38.0769,0.2182
38.1388,0.2225
38.2008,0.4061
38.2627,0.4277
38.3246,0.3656
38.5103,0.224
38.5722,0.2052
38.6341,0.1286
38.6961,0.1272
38.758,0.1243
38.8199,0.1373
38.8818,0.1445
38.9437,0.1786
39.0056,0.2876
39.0675,0.2832
39.439,0.1633
39.5009,0.1993
39.5629,0.2847
39.6248,0.2832
39.6867,0.091
39.7486,0.091
39.8105,0.0867
39.8724,0.0853
39.9343,0.1647
39.9962,0.2327
40.0582,0.2298
40.1201,0.2182
40.182,0.1792
40.2439,0.1821
40.3058,0.2645
40.3677,0.224
40.4296,0.2052
40.4916,0.1488
40.5535,0.2124
40.6154,0.1792
40.6773,0.1763
40.7392,0.1517
40.8011,0.3251
40.863,0.302
40.925,0.2991
40.9869,0.2572
41.0488,0.2384
41.1107,0.1575
41.1726,0.1633
41.2345,0.1561
41.2964,0.211
41.3583,0.2168
41.4203,0.3353
41.4822,0.3367
41.5441,0.3396
41.606,0.1604
41.6679,0.2197
41.7298,0.2211
41.7917,0.1996
41.8537,0.224
41.9156,0.3685
41.9775,0.4653
42.0394,0.4277
42.2251,0.2211
42.2871,0.224
42.349,0.4176
42.4109,0.4061
42.6585,0.2066
42.7205,0.1098
42.7824,0.2095
42.8443,0.2616
42.9062,0.2702
42.9681,0.2312
43.03,0.2081
43.0919,0.0939
43.1538,0.0939
43.2158,0.2052
43.2777,0.3396
43.3396,0.3902
43.4015,0.3223
43.4634,0.1893
43.5253,0.3598
43.5872,0.4451
43.6492,0.3642
43.7111,0.1821
43.773,0.1835
43.8349,0.1879
43.8968,0.2283
43.9587,0.1908
44.0206,0.2418
44.0826,0.3627
44.1445,0.3353
44.3921,0.1532
44.454,0.1691
44.5159,0.1777
44.5779,0.1792
44.6398,0.1584
44.7017,0.2093
44.7636,0.237
44.8255,0.2876
44.8874,0.198
44.9493,0.1517
45.0113,0.1257
45.0732,0.1272
45.1351,0.1373
45.197,0.1199
45.2589,0.1113
45.3208,0.1055
45.3827,0.2341
45.4447,0.2428
45.5066,0.166
45.5685,0.1691
45.6304,0.1792
45.6923,0.211
45.7542,0.2211
45.8161,0.1763
45.878,0.1527
45.94,0.1432
46.0019,0.3078
46.0638,0.3439
46.1876,0.2197
46.2495,0.1893
46.3114,0.1402
46.3734,0.1604
46.4353,0.2182
46.4972,0.2211
46.5591,0.172
46.621,0.1546
46.6829,0.315
46.7448,0.3503
46.8068,0.3671
46.8687,0.315
47.3021,0.3035
47.364,0.2248
47.4878,0.2269
47.5497,0.2124
47.6116,0.172
47.6735,0.2471
47.7355,0.2587
47.7974,0.2616
47.8593,0.1532
47.9212,0.1127
47.9831,0.1416
48.045,0.1604
48.1069,0.1777
48.1689,0.1951
48.2308,0.2341
48.2927,0.211
48.3546,0.1927
48.4165,0.1965
48.4784,0.244
48.5403,0.2991
48.6023,0.2962
48.6642,0.1936
48.7261,0.1922
48.788,0.1893
48.8499,0.172
48.9118,0.1691
48.9737,0.172
49.0356,0.172
49.0976,0.1647
49.1595,0.2038
49.2214,0.2283
49.2833,0.2283
49.3452,0.2283
49.4071,0.2529
49.469,0.3121
49.531,0.3136
49.5929,0.4827
49.9644,0.1705
50.0263,0.1546
50.0882,0.1344
50.1501,0.1879
50.212,0.198
50.2739,0.1604
50.3358,0.2645
50.3977,0.2616
50.4597,0.2601
50.5216,0.2009
50.5835,0.2847
50.8311,0.2803
50.8931,0.1792
50.955,0.1792
51.0169,0.185
51.0788,0.2789
51.1407,0.2818
51.2026,0.2832
51.3265,0.2211
51.3884,0.1839
51.4503,0.3425
51.5122,0.3873
51.5741,0.3245
51.636,0.3107
51.6979,0.3179
51.7598,0.3338
51.9456,0.3078
52.0075,0.3223
52.0694,0.2095
52.1313,0.1402
52.1932,0.2471
52.2552,0.2471
52.3171,0.315
52.379,0.3237
52.5647,0.1373
52.6266,0.1734
52.6886,0.1749
52.7505,0.1344
52.8124,0.1486
52.8743,0.211
52.9362,0.211
52.9981,0.1763
53.06,0.2182
53.122,0.1488
53.1839,0.1777
53.2458,0.146
53.3077,0.1503
53.3696,0.1532
53.4315,0.25
53.4934,0.2514
53.5553,0.302
53.6173,0.237
53.6792,0.237
53.8649,0.25
53.9268,0.237
54.0507,0.2205
54.1126,0.211
54.1745,0.2038
54.2364,0.0694
54.2983,0.0737
54.3602,0.1604
54.4221,0.2457
54.4841,0.2124
54.546,0.1604
54.6079,0.1402
54.6698,0.1387
54.7317,0.1749
54.7936,0.1344
54.8555,0.2401
54.9174,0.3092
54.9794,0.2977
55.0413,0.3092
55.2889,0.2153
55.3508,0.1286
55.4128,0.3497
55.6604,0.2534
55.7223,0.2225
55.7842,0.2153
55.97,0.2704
56.0319,0.2283
56.0938,0.1934
56.1557,0.1175
56.2176,0.2288
56.2795,0.2442
56.3415,0.2088
56.4034,0.1636
56.4653,0.1623
56.5272,0.1194
56.5891,0.2205
56.651,0.2263
56.7129,0.2875
56.7749,0.2053
56.8368,0.2897
56.8987,0.3002
57.1463,0.2988
57.394,0.3374
57.4559,0.3111
57.5178,0.2682
57.7655,0.2832
57.8274,0.2731
57.8893,0.2486
57.9512,0.2847
58.0131,0.3107
58.137,0.289
58.2608,0.1705
58.3227,0.1777
58.3846,0.1936
58.4465,0.1228
58.5084,0.1503
58.5704,0.1171
58.6323,0.1171
58.6942,0.2225
58.7561,0.2471
58.818,0.2905
58.8799,0.3237
58.9418,0.2963
59.0038,0.211
59.0657,0.2182
59.1276,0.2688
59.1895,0.225
59.2514,0.2066
59.3133,0.1864
59.3752,0.185
59.4371,0.091
59.4991,0.1488
59.561,0.1806
59.6229,0.2211
59.6848,0.1763
59.7467,0.1749
59.8086,0.1676
59.8705,0.3194
59.9325,0.3194
59.9944,0.3035
60.1801,0.1615
60.242,0.1936
60.3039,0.1951
60.3659,0.2905
60.6135,0.3107
60.6754,0.3183
60.7373,0.2999
60.7992,0.2283
60.8612,0.2064
60.9231,0.1792
60.985,0.1171
61.0469,0.1084
61.1088,0.169
61.1707,0.1286
61.2326,0.1621
61.2946,0.3336
61.3565,0.315
61.4184,0.1927
61.4803,0.091
61.5422,0.0838
61.6041,0.1142
61.666,0.1532
61.728,0.2616
61.7899,0.2645
61.8518,0.224
61.9137,0.1532
61.9756,0.2153
62.0375,0.2832
62.0994,0.2514
62.1614,0.3569
62.2233,0.3223
62.4709,0.1835
62.5328,0.1908
62.5947,0.1705
62.6567,0.1676
62.7186,0.2052
62.7805,0.2803
62.8424,0.2746
62.9043,0.2685
62.9662,0.1329
63.0281,0.1755
63.0901,0.2008
63.152,0.2702
63.2139,0.2688
63.2758,0.2182
63.3377,0.1908
63.3996,0.1908
63.4615,0.1199
63.5235,0.2269
63.5854,0.2298
63.6473,0.2601
63.7092,0.1387
63.7711,0.1286
63.833,0.2298
63.8949,0.2197
63.9568,0.2084
64.0188,0.2061
64.0807,0.1864
64.1426,0.1546
64.2045,0.2009
64.2664,0.2442
64.3283,0.2457
64.3902,0.1922
64.4522,0.2457
64.5141,0.2457
64.6998,0.1618
64.7617,0.1257
64.8236,0.1532
64.8856,0.1561
64.9475,0.1922
65.0094,0.276
65.0713,0.3136
65.1332,0.237
65.1951,0.2355
65.257,0.1243
65.3189,0.2717
65.3809,0.2861
65.4428,0.2876
65.5047,0.1214
65.5666,0.1055
65.6285,0.1069
65.6904,0.1546
65.7523,0.1749
65.8143,0.3266
65.8762,0.289
