Time (s),Motion Intensity
0.0,0.532
0.0619,0.5457
0.1238,0.557
0.1857,0.492
0.2477,0.4599
0.3096,0.4502
0.3715,0.4689
0.4334,0.471
0.4953,0.466
0.5572,0.4936
0.6191,0.4658
0.6811,0.4618
0.743,0.477
0.8049,0.4886
0.8668,0.8316
0.9287,0.7971
0.9906,0.7514
1.0525,0.7486
6.3771,0.7818
7.2439,0.3887
7.3058,0.4046
7.4916,0.3324
7.5535,0.3208
7.6154,0.3815
7.863,0.1633
7.925,0.159
7.9869,0.1691
8.0488,0.1908
8.1107,0.236
8.1726,0.3555
8.2345,0.3454
8.2964,0.3376
8.6679,0.3006
8.7298,0.224
8.7917,0.2327
8.8537,0.2413
8.9156,0.2124
8.9775,0.3497
9.0394,0.2919
9.1013,0.2905
9.1632,0.3006
9.2251,0.435
9.2871,0.4335
9.5347,0.1633
9.5966,0.2659
9.6585,0.3382
9.7205,0.3439
10.03,0.3121
10.2777,0.3483
10.4015,0.2211
10.4634,0.2225
10.5253,0.2785
10.5872,0.2384
10.6492,0.5029
10.7111,0.5014
11.0206,0.211
11.0826,0.2825
11.1445,0.3945
11.2064,0.3743
11.2683,0.2213
11.3302,0.4162
11.3921,0.4465
11.454,0.4451
11.5159,0.2659
11.5779,0.2274
11.6398,0.2081
11.7017,0.2327
11.7636,0.2399
11.8255,0.2486
11.8874,0.3656
11.9493,0.3569
12.3827,0.1676
12.4447,0.1676
12.5066,0.2063
12.5685,0.1893
12.6304,0.3916
12.6923,0.4205
13.0019,0.3353
13.0638,0.3309
13.1257,0.3194
13.1876,0.2486
13.2495,0.2977
13.3114,0.2977
13.3734,0.3627
13.4353,0.2197
13.4972,0.1994
13.5591,0.2023
13.621,0.3439
13.6829,0.4046
14.0544,0.2023
14.1163,0.0809
14.1782,0.0679
14.2402,0.1301
14.3021,0.3295
14.364,0.3685
14.4259,0.3359
14.4878,0.1618
14.5497,0.1879
14.6116,0.1893
14.6735,0.2558
14.7355,0.2298
14.7974,0.3121
14.8593,0.3121
15.1069,0.2919
15.1689,0.224
15.2308,0.2659
15.2927,0.3353
15.4784,0.1908
15.5403,0.1358
15.6023,0.2312
15.6642,0.2645
15.7261,0.3324
15.788,0.2919
15.8499,0.1575
15.9118,0.2267
15.9737,0.2355
16.0356,0.3616
16.0976,0.2934
16.1595,0.1908
16.2214,0.328
16.2833,0.461
16.531,0.3526
16.5929,0.3136
16.8405,0.3266
16.9644,0.1994
17.0882,0.1936
17.1501,0.2428
17.212,0.2514
17.2739,0.1908
17.3358,0.1994
17.3977,0.276
17.4597,0.2225
17.5216,0.185
17.5835,0.146
17.6454,0.1199
17.7073,0.1532
17.7692,0.2621
17.8311,0.2861
17.8931,0.4573
17.955,0.3454
18.5741,0.1864
18.636,0.2514
18.6979,0.2038
18.7598,0.4032
19.3171,0.4061
19.379,0.3786
19.7505,0.172
19.8124,0.1705
19.8743,0.1893
19.9362,0.2182
19.9981,0.2269
20.06,0.2283
20.122,0.1794
20.1839,0.1734
20.2458,0.1517
20.3077,0.3859
20.3696,0.396
20.6173,0.1647
20.6792,0.2399
20.7411,0.2803
20.803,0.2168
20.8649,0.1345
20.9268,0.1514
20.9887,0.3208
21.0507,0.4104
21.1126,0.3801
21.1745,0.2948
21.2983,0.2977
21.546,0.276
21.6079,0.1994
21.6698,0.2717
21.7317,0.314
22.1651,0.1387
22.227,0.1416
22.2889,0.2139
22.3508,0.1806
22.4128,0.1792
22.4747,0.2803
22.5366,0.294
22.5985,0.3887
22.6604,0.3064
22.8462,0.3223
22.9081,0.3064
22.97,0.2023
23.0319,0.1691
23.0938,0.1676
23.1557,0.1604
23.2176,0.2325
23.2795,0.3092
23.3415,0.3368
23.4034,0.2702
23.4653,0.2197
23.7129,0.1821
23.7749,0.1546
23.8368,0.1546
23.8987,0.1156
23.9606,0.1835
24.0225,0.1821
24.0844,0.1344
24.1463,0.0968
24.2083,0.2081
24.2702,0.2861
24.3321,0.3425
24.5178,0.0766
24.5797,0.2095
24.6417,0.2471
24.7036,0.2197
24.7655,0.2327
24.8274,0.2066
24.8893,0.1652
24.9512,0.1749
25.0131,0.2572
25.075,0.2558
25.137,0.224
25.1989,0.224
25.2608,0.1691
25.3227,0.078
25.3846,0.2145
25.4465,0.289
25.5084,0.3194
25.5704,0.1792
25.6323,0.1272
25.6942,0.1329
25.7561,0.1647
25.818,0.1647
25.8799,0.211
25.9418,0.1994
26.0038,0.2283
26.0657,0.2283
26.3133,0.1517
26.3752,0.1503
26.4371,0.3728
26.4991,0.4942
26.8086,0.1546
26.8705,0.1893
26.9325,0.1749
26.9944,0.2038
27.0563,0.1488
27.1182,0.1474
27.1801,0.5303
27.242,0.5332
27.4897,0.146
27.5516,0.1026
27.6135,0.1546
27.6754,0.1344
27.7373,0.2327
27.7992,0.2341
27.8612,0.2991
27.9231,0.3107
27.985,0.354
28.1707,0.2384
28.2326,0.2688
28.2946,0.27
28.4184,0.2099
28.4803,0.2168
28.5422,0.3006
28.6041,0.3006
28.8518,0.159
28.9137,0.237
28.9756,0.2514
29.0375,0.2514
29.0994,0.1777
29.1614,0.146
29.2233,0.2202
29.2852,0.3295
29.3471,0.4162
29.409,0.3006
29.4709,0.2962
29.5328,0.3223
29.5947,0.3237
29.8424,0.1835
29.9043,0.1734
29.9662,0.0968
30.0281,0.3107
30.0901,0.3382
30.152,0.3439
30.3377,0.2673
30.3996,0.3743
30.4615,0.276
30.5235,0.2254
30.5854,0.1864
30.6473,0.1864
30.7092,0.2991
30.7711,0.328
31.0188,0.1618
31.0807,0.289
31.1426,0.3309
31.2045,0.3567
31.2664,0.276
31.3283,0.1519
31.3902,0.3471
31.7617,0.2384
31.8236,0.2966
31.8856,0.3165
31.9475,0.2182
32.0094,0.2457
32.0713,0.211
32.1332,0.2124
32.1951,0.2572
32.257,0.25
32.3189,0.2789
32.3809,0.2876
32.4428,0.2803
32.6904,0.341
32.7523,0.2399
32.8143,0.231
32.8762,0.1792
33.0,0.2948
33.0619,0.3526
33.1238,0.2919
33.1857,0.2919
33.3715,0.185
33.4334,0.1756
33.4953,0.0766
33.5572,0.1084
33.6191,0.2832
33.6811,0.4379
33.743,0.435
33.9287,0.1662
33.9906,0.1676
34.0525,0.3656
34.1144,0.3324
34.1764,0.4205
34.2383,0.3309
34.4859,0.1909
34.5478,0.159
34.6098,0.1662
34.6717,0.1676
34.7336,0.1936
34.7955,0.2832
34.8574,0.3179
34.9193,0.2919
34.9812,0.2081
35.0432,0.2803
35.1051,0.3179
35.3527,0.3064
35.4146,0.3107
35.7242,0.1835
35.7861,0.1763
35.848,0.2691
35.9099,0.2876
35.9719,0.25
36.0338,0.25
36.2195,0.3786
36.4672,0.4433
36.5291,0.4129
36.591,0.1416
36.6529,0.1142
36.7148,0.0968
36.7767,0.0968
36.8386,0.1763
36.9006,0.3295
36.9625,0.3858
37.0244,0.3743
37.0863,0.1864
37.1482,0.2514
37.2101,0.2847
37.272,0.2818
37.334,0.2784
37.3959,0.1908
37.4578,0.2283
37.5197,0.2095
37.5816,0.2081
37.6435,0.2543
37.7054,0.3194
37.7674,0.422
37.8293,0.4003
38.1388,0.1792
38.2008,0.1546
38.2627,0.1879
38.3246,0.1965
38.3865,0.332
38.4484,0.3208
38.5103,0.2717
38.5722,0.1879
38.6341,0.3353
38.6961,0.3367
38.8818,0.3483
38.9437,0.3468
39.0056,0.2876
39.1295,0.2066
39.1914,0.1994
39.2533,0.2023
39.3152,0.2857
39.3771,0.2934
39.439,0.3121
39.5009,0.2861
39.5629,0.3353
39.6248,0.2789
39.6867,0.2298
39.7486,0.2283
39.8105,0.2023
39.8724,0.233
39.9343,0.2457
39.9962,0.2066
40.0582,0.2066
40.1201,0.2673
40.182,0.2847
40.2439,0.2587
40.3058,0.3399
40.3677,0.3396
40.4296,0.3382
40.6154,0.0968
40.6773,0.1821
40.7392,0.25
40.8011,0.2514
40.863,0.2558
40.925,0.237
40.9869,0.3266
41.0488,0.3165
41.1107,0.2924
41.3583,0.2775
41.4203,0.3703
41.4822,0.4216
41.5441,0.3743
41.606,0.237
41.6679,0.2269
41.7298,0.2514
41.7917,0.25
41.8537,0.25
41.9156,0.2457
41.9775,0.3092
42.2251,0.3468
42.2871,0.3829
42.349,0.5289
42.4109,0.5173
42.4728,0.4754
42.8443,0.3064
42.9062,0.2977
42.9681,0.1488
43.03,0.3353
43.0919,0.3367
43.1538,0.4346
43.2777,0.1792
43.3396,0.2327
43.4015,0.2413
43.4634,0.2587
43.5253,0.2312
43.5872,0.2399
43.6492,0.2312
43.7111,0.211
43.773,0.2124
43.8349,0.2514
43.8968,0.2905
43.9587,0.289
44.0206,0.2659
44.0826,0.2457
44.1445,0.2529
44.2064,0.4032
44.2683,0.3598
44.3302,0.3353
44.6398,0.3006
44.7017,0.3078
44.7636,0.2991
44.8255,0.2052
44.8874,0.1893
44.9493,0.1965
45.0113,0.1965
45.0732,0.3092
45.1351,0.3165
45.197,0.4104
45.6923,0.3728
45.94,0.5188
46.0019,0.5275
46.0638,0.3728
46.1257,0.2832
46.1876,0.4205
46.2495,0.4306
46.4972,0.1561
46.5591,0.1604
46.621,0.3728
46.6829,0.4118
47.0544,0.435
47.3021,0.1604
47.364,0.1604
47.4259,0.2457
47.4878,0.2959
47.5497,0.315
47.6116,0.3439
47.6735,0.3439
47.8593,0.3743
47.9212,0.2818
47.9831,0.2803
48.045,0.3179
48.1069,0.3512
48.3546,0.422
48.4165,0.4032
48.7261,0.2717
48.788,0.3136
48.8499,0.2832
48.9118,0.2384
48.9737,0.2384
49.0356,0.2238
49.0976,0.1922
49.1595,0.1806
49.2214,0.3179
49.2833,0.3916
49.3452,0.4032
49.4071,0.4205
49.469,0.3208
49.531,0.3092
49.5929,0.2413
49.6548,0.237
49.7167,0.2197
49.7786,0.2471
49.8405,0.2616
49.9024,0.2231
49.9644,0.2818
50.0263,0.2789
50.0882,0.2649
50.1501,0.1908
50.212,0.2659
50.2739,0.2962
50.3358,0.2948
50.3977,0.2841
50.4597,0.4335
50.5216,0.4321
50.7073,0.2479
50.7692,0.1228
50.8311,0.2254
50.8931,0.2474
50.955,0.2254
51.0169,0.2211
51.0788,0.2572
51.1407,0.276
51.2026,0.2587
51.2645,0.2153
51.3265,0.2038
51.3884,0.2298
51.4503,0.2279
51.5122,0.2514
51.5741,0.237
51.636,0.1777
51.6979,0.2095
51.7598,0.3049
51.8218,0.3064
51.8837,0.2269
51.9456,0.2457
52.0075,0.2486
52.0694,0.289
52.1313,0.3121
52.1932,0.3107
52.3171,0.396
52.379,0.3555
52.4409,0.2529
52.5028,0.2543
52.6886,0.104
52.7505,0.2197
52.8124,0.3309
52.8743,0.3867
52.9362,0.2847
52.9981,0.2486
53.06,0.2471
53.122,0.1705
53.1839,0.2208
53.2458,0.2254
53.3077,0.2962
53.3696,0.2996
53.4315,0.2717
53.4934,0.2095
53.5553,0.172
53.6173,0.2052
53.6792,0.2818
53.7411,0.3194
53.803,0.2384
53.8649,0.2384
53.9268,0.2413
53.9887,0.263
54.0507,0.2442
54.1126,0.2341
54.1745,0.2428
54.2364,0.2428
54.2983,0.1402
54.3602,0.1922
54.4221,0.185
54.4841,0.1835
54.546,0.1908
54.6079,0.2095
54.6698,0.2095
54.7317,0.2413
54.7936,0.1705
54.8555,0.1994
54.9174,0.2009
54.9794,0.1994
55.0413,0.3078
55.1032,0.3728
55.1651,0.3772
55.227,0.4061
55.2889,0.5159
55.3508,0.3613
55.4128,0.3382
55.4747,0.2038
55.5366,0.1965
55.5985,0.1634
55.6604,0.1982
55.7223,0.2919
55.7842,0.3555
55.8462,0.2961
55.9081,0.3552
55.97,0.4857
56.2795,0.4616
56.3415,0.3885
56.5891,0.3437
56.651,0.3689
56.7129,0.3355
56.7749,0.2532
56.8368,0.275
56.8987,0.2765
56.9606,0.2229
57.0225,0.3652
57.0844,0.4593
57.394,0.4709
57.5178,0.2376
57.5797,0.2124
57.6417,0.2034
57.7036,0.3338
57.7655,0.3367
57.8274,0.4465
57.8893,0.4465
57.9512,0.328
58.0131,0.3266
58.075,0.263
58.2608,0.276
58.3227,0.3338
58.3846,0.3425
58.4465,0.2717
58.5084,0.2384
58.5704,0.2847
58.6323,0.422
58.6942,0.3584
58.7561,0.3569
58.818,0.2471
58.8799,0.2471
58.9418,0.2298
59.0038,0.2009
59.0657,0.1575
59.1276,0.1517
59.1895,0.1445
59.2514,0.1936
59.3133,0.263
59.3752,0.2587
59.4371,0.2572
59.4991,0.3194
59.7467,0.4191
60.1182,0.2038
60.1801,0.2283
60.242,0.2523
60.3039,0.3309
60.3659,0.3237
60.4278,0.2341
60.4897,0.2341
60.5516,0.2341
60.6135,0.2543
60.6754,0.2818
60.7373,0.1777
60.7992,0.2283
60.8612,0.3295
60.9231,0.4191
60.985,0.3786
61.0469,0.214
61.1088,0.1503
61.1707,0.1618
61.2326,0.1763
61.2946,0.2355
61.3565,0.2601
61.4184,0.1806
61.4803,0.1777
61.5422,0.2168
61.6041,0.2254
61.666,0.3728
61.728,0.4249
61.7899,0.3772
61.8518,0.3512
62.0994,0.1416
62.1614,0.2147
62.2233,0.3049
62.2852,0.3035
62.3471,0.1416
62.409,0.1723
62.4709,0.1604
62.5328,0.1368
62.5947,0.2832
62.6567,0.2977
62.7186,0.289
62.7805,0.224
62.8424,0.2283
62.9043,0.3251
62.9662,0.3266
63.3996,0.293
63.4615,0.3078
63.5235,0.2789
63.5854,0.1763
63.6473,0.2023
63.7092,0.2471
63.7711,0.1503
63.833,0.2341
63.8949,0.3367
63.9568,0.396
64.0188,0.2605
64.0807,0.1893
64.1426,0.1879
64.2045,0.1792
64.2664,0.276
64.3283,0.2717
64.3902,0.3613
64.4522,0.3064
64.6379,0.3259
64.6998,0.4191
64.7617,0.501
64.8236,0.2731
64.8856,0.2645
64.9475,0.1301
65.0094,0.2876
65.0713,0.3006
65.1332,0.3107
65.1951,0.2543
65.257,0.2746
65.5047,0.4436
65.5666,0.2139
65.6285,0.2081
65.6904,0.2312
65.7523,0.2832
65.8143,0.2269
65.8762,0.2645
65.9381,0.211
66.0,0.1936
66.0619,0.1387
66.1238,0.2254
