Time (s),Motion Intensity
0.0,0.532
0.0619,0.5457
0.1238,0.557
0.1857,0.492
0.2477,0.4599
0.3096,0.4502
0.3715,0.4689
0.4334,0.471
0.4953,0.466
0.5572,0.4936
0.6191,0.4658
0.6811,0.4618
0.743,0.477
0.8049,0.4886
0.8668,0.8316
0.9287,0.7971
0.9906,0.7514
1.0525,0.7486
6.3771,0.4725
6.6867,0.2731
6.7486,0.4163
6.8105,0.4465
7.2439,0.3324
7.6154,0.1069
7.6773,0.1493
7.7392,0.1691
7.8011,0.1821
7.863,0.1936
7.925,0.1936
7.9869,0.2153
8.0488,0.3295
8.1107,0.3092
8.2345,0.2645
8.2964,0.354
8.3583,0.2717
8.4203,0.1879
8.4822,0.2095
8.5441,0.1965
8.606,0.1864
8.6679,0.1416
8.7298,0.2991
8.7917,0.2298
8.8537,0.211
8.9156,0.2139
8.9775,0.2269
9.0394,0.172
9.1013,0.2038
9.1632,0.2254
9.2251,0.1951
9.2871,0.2269
9.349,0.2153
9.4109,0.2529
9.4728,0.2558
9.5347,0.276
9.5966,0.2731
9.6585,0.3569
9.7205,0.3121
9.7824,0.3107
9.8443,0.1344
9.9062,0.1171
9.9681,0.1358
10.03,0.1517
10.0919,0.2876
10.1538,0.2948
10.2158,0.3092
10.2777,0.1532
10.3396,0.3279
10.4015,0.3555
10.4634,0.354
10.5253,0.1965
10.5872,0.1777
10.6492,0.2428
10.7111,0.2384
10.773,0.1315
10.8349,0.1402
10.8968,0.1358
10.9587,0.2832
11.0206,0.3064
11.0826,0.3064
11.1445,0.1879
11.2064,0.1879
11.2683,0.159
11.3302,0.2312
11.3921,0.2327
11.454,0.1098
11.5159,0.1821
11.5779,0.1821
11.6398,0.1777
11.7017,0.1171
11.7636,0.1098
11.8255,0.1012
11.8874,0.159
11.9493,0.1785
12.0113,0.25
12.0732,0.2486
12.1351,0.2269
12.197,0.2052
12.2589,0.2038
12.3208,0.2038
12.3827,0.2023
12.4447,0.1777
12.5066,0.1302
12.5685,0.0925
12.6304,0.0954
12.6923,0.1113
12.7542,0.2211
12.8161,0.328
12.878,0.4393
13.1257,0.1098
13.1876,0.0925
13.2495,0.1866
13.3114,0.2038
13.3734,0.2572
13.4353,0.2442
13.4972,0.3916
13.5591,0.5058
13.621,0.4711
13.8687,0.4379
13.9306,0.4566
13.9925,0.2514
14.0544,0.2876
14.1163,0.3656
14.364,0.185
14.4259,0.2269
14.4878,0.3483
14.5497,0.3497
14.7355,0.1734
14.7974,0.1763
14.8593,0.1822
14.9212,0.2789
14.9831,0.354
15.045,0.159
15.1069,0.2832
15.1689,0.2832
15.4165,0.2413
15.4784,0.1806
15.5403,0.2066
15.6023,0.2066
15.6642,0.1749
15.7261,0.2353
15.788,0.2514
15.8499,0.2702
15.9118,0.2355
15.9737,0.2428
16.0356,0.3107
16.0976,0.2153
16.1595,0.2023
16.2214,0.2009
16.2833,0.2399
16.3452,0.3266
16.4071,0.2066
16.469,0.1604
16.531,0.1604
16.5929,0.2471
16.6548,0.2717
16.7167,0.2558
16.7786,0.2746
16.8405,0.2818
16.9024,0.3208
16.9644,0.2876
17.0263,0.1749
17.0882,0.1055
17.1501,0.1332
17.212,0.224
17.2739,0.2673
17.3358,0.2688
17.3977,0.2702
17.4597,0.265
17.5216,0.1951
17.5835,0.2142
17.6454,0.3136
17.7073,0.3801
17.7692,0.3211
17.8311,0.2399
17.8931,0.2399
18.3884,0.1676
18.4503,0.2905
18.5122,0.2905
18.5741,0.3902
18.636,0.3338
18.6979,0.2991
18.7598,0.2543
18.8218,0.2211
18.8837,0.198
18.9456,0.1965
19.0075,0.3321
19.0694,0.3454
19.3171,0.2213
19.379,0.3974
19.4409,0.3338
19.6886,0.1777
19.7505,0.1474
19.8124,0.1272
19.8743,0.1094
19.9362,0.2948
19.9981,0.2905
20.06,0.289
20.122,0.1315
20.1839,0.0723
20.2458,0.078
20.3077,0.1555
20.3696,0.2543
20.4315,0.263
20.4934,0.1792
20.5553,0.1806
20.6173,0.2269
20.6792,0.2659
20.7411,0.2962
20.803,0.2818
20.8649,0.2211
20.9268,0.2182
20.9887,0.3237
21.0507,0.4061
21.3602,0.1705
21.4221,0.2023
21.4841,0.5318
21.546,0.4957
21.7936,0.2269
21.8555,0.2298
21.9174,0.2355
21.9794,0.1142
22.0413,0.2124
22.1032,0.2298
22.1651,0.4465
22.5366,0.3382
22.5985,0.2211
22.6604,0.1939
22.7223,0.1879
22.7842,0.1517
22.8462,0.198
22.9081,0.1416
22.97,0.1329
23.0319,0.1662
23.0938,0.2009
23.1557,0.2288
23.2176,0.2413
23.2795,0.2918
23.3415,0.2717
23.8987,0.1893
23.9606,0.159
24.0225,0.159
24.0844,0.2659
24.1463,0.302
24.2083,0.3714
24.2702,0.341
24.3321,0.2471
24.394,0.3549
24.4559,0.4205
24.7655,0.1387
24.8274,0.3338
24.8893,0.3685
24.9512,0.3656
25.0131,0.3309
25.075,0.3382
25.137,0.2702
25.1989,0.2153
25.2608,0.1994
25.3227,0.172
25.3846,0.172
25.4465,0.211
25.5084,0.2341
25.5704,0.3988
25.8799,0.1
25.9418,0.2066
26.0038,0.2818
26.0657,0.2457
26.1276,0.2572
26.4371,0.172
26.4991,0.2514
26.561,0.276
26.6229,0.2688
26.6848,0.1317
26.7467,0.1026
26.8086,0.1668
26.8705,0.224
26.9325,0.2327
26.9944,0.1806
27.0563,0.0954
27.1182,0.3194
27.3659,0.2457
27.4278,0.2139
27.4897,0.1955
27.5516,0.1788
27.6135,0.2081
27.6754,0.2095
27.7373,0.1604
27.7992,0.1835
27.8612,0.185
27.9231,0.2009
27.985,0.2356
28.0469,0.2673
28.1088,0.2558
28.3565,0.2899
28.4184,0.2948
28.4803,0.2688
28.728,0.3873
29.0994,0.328
29.3471,0.2991
29.5947,0.3902
29.7805,0.1618
29.8424,0.2471
29.9043,0.2717
29.9662,0.2514
30.0281,0.2514
30.7711,0.1373
30.833,0.1443
30.8949,0.1546
30.9568,0.4133
31.0188,0.409
31.3283,0.3382
31.3902,0.3266
31.4522,0.2182
31.5141,0.1474
31.576,0.1879
31.6379,0.1503
31.6998,0.1575
31.7617,0.2139
31.8236,0.2153
31.8856,0.1763
31.9475,0.2023
32.0713,0.3121
32.1332,0.2977
32.4428,0.1524
32.5047,0.1691
32.5666,0.1749
32.6285,0.1763
32.6904,0.1792
32.7523,0.1936
32.8143,0.2269
32.8762,0.1777
32.9381,0.1763
33.0,0.2457
33.0619,0.2993
33.1238,0.2803
33.1857,0.3165
33.4334,0.1113
33.4953,0.1604
33.5572,0.1994
33.6191,0.1676
33.6811,0.0983
33.743,0.1171
33.8049,0.1081
33.8668,0.2746
33.9287,0.2803
33.9906,0.2775
34.2383,0.3501
34.3002,0.3338
34.3621,0.3338
34.6098,0.3931
34.8574,0.1488
34.9193,0.1474
34.9812,0.2142
35.0432,0.3396
35.1051,0.3396
35.4146,0.3309
35.6004,0.198
35.6623,0.2787
35.7242,0.2645
35.9719,0.2572
36.0338,0.2182
36.0957,0.1893
36.1576,0.1806
36.2195,0.2471
36.2814,0.2616
36.3433,0.3439
36.4053,0.289
36.6529,0.2962
36.7148,0.2225
36.7767,0.2099
36.8386,0.1788
36.9006,0.2331
36.9625,0.2731
37.0244,0.2355
37.0863,0.2081
37.3959,0.1922
37.4578,0.1864
37.5197,0.2572
37.5816,0.2673
37.7054,0.2254
37.8293,0.2269
37.8912,0.2702
37.9531,0.172
38.015,0.2312
38.0769,0.2327
38.1388,0.3483
38.4484,0.2702
38.5103,0.2905
38.5722,0.2818
38.8818,0.1806
38.9437,0.2919
39.0056,0.2919
39.0675,0.1503
39.1295,0.1055
39.1914,0.0896
39.2533,0.2298
39.3152,0.2312
39.3771,0.248
39.439,0.1691
39.5009,0.1342
39.5629,0.1315
39.6248,0.2066
39.6867,0.2384
39.7486,0.2182
39.8105,0.1445
39.8724,0.159
39.9343,0.3916
39.9962,0.3396
40.0582,0.3309
40.2439,0.1272
40.3058,0.1503
40.3677,0.1503
40.4296,0.18
40.4916,0.2283
40.5535,0.2832
40.6154,0.3685
40.6773,0.3801
40.7392,0.4011
40.8011,0.3699
41.2345,0.1662
41.2964,0.3107
41.6679,0.2543
41.7298,0.2977
41.7917,0.2702
41.8537,0.2191
41.9156,0.0997
41.9775,0.1012
42.0394,0.1778
42.1013,0.2601
42.1632,0.2818
42.2251,0.2876
42.2871,0.289
42.5966,0.2616
42.6585,0.2587
42.7205,0.1662
42.7824,0.2514
42.8443,0.2702
42.9062,0.2529
42.9681,0.4494
43.2158,0.2602
43.2777,0.2558
43.3396,0.3025
43.4015,0.315
43.7111,0.2182
43.773,0.2182
43.8349,0.3266
44.0826,0.2341
44.1445,0.2633
44.2064,0.2775
44.2683,0.2789
44.3302,0.2542
44.3921,0.1965
44.454,0.2543
44.5159,0.2543
44.5779,0.2645
44.6398,0.2977
44.7017,0.2847
44.7636,0.2413
44.8255,0.1879
44.8874,0.2239
44.9493,0.2341
45.0113,0.3006
45.0732,0.302
45.197,0.1734
45.2589,0.2529
45.3208,0.3065
45.3827,0.3497
45.4447,0.4364
45.94,0.3165
46.0019,0.1763
46.0638,0.2514
46.1257,0.3439
46.1876,0.4653
46.4353,0.263
46.4972,0.263
46.5591,0.2861
46.7448,0.1879
46.8068,0.2023
46.8687,0.3194
46.9306,0.2991
46.9925,0.3396
47.1782,0.2541
47.2402,0.1821
47.3021,0.1821
47.364,0.1488
47.4259,0.1994
47.4878,0.1994
47.5497,0.1936
47.6116,0.315
47.6735,0.4032
47.7355,0.396
47.7974,0.2991
47.8593,0.2977
47.9212,0.1517
47.9831,0.1657
48.045,0.2153
48.1069,0.2153
48.1689,0.1922
48.2308,0.1994
48.2927,0.27
48.3546,0.2731
48.4165,0.2558
48.4784,0.0939
48.5403,0.1662
48.6023,0.1821
48.6642,0.1662
48.7261,0.1749
48.788,0.2746
48.8499,0.2746
48.9118,0.2731
49.2214,0.3772
49.469,0.185
49.531,0.3346
49.9024,0.3829
49.9644,0.2977
50.0263,0.2052
50.0882,0.2832
50.1501,0.3353
50.212,0.3324
50.2739,0.3092
50.3358,0.3092
50.3977,0.2327
50.4597,0.2399
50.5216,0.2312
50.5835,0.3815
50.6454,0.396
50.7073,0.328
50.8311,0.3324
51.0788,0.4176
51.1407,0.3801
51.4503,0.3092
51.6979,0.2919
51.9456,0.2861
52.0075,0.2764
52.0694,0.2211
52.1313,0.302
52.1932,0.2789
52.4409,0.2269
52.5028,0.2702
52.5647,0.2717
52.6266,0.2283
52.6886,0.2601
52.7505,0.224
52.8124,0.3815
52.8743,0.3844
53.1839,0.4003
53.2458,0.3974
53.3077,0.3589
53.3696,0.448
53.4315,0.341
53.4934,0.263
53.5553,0.1893
53.6173,0.1864
53.6792,0.1893
53.7411,0.1575
53.803,0.1243
53.8649,0.1069
53.9268,0.1485
53.9887,0.409
54.0507,0.487
54.2983,0.1084
54.3602,0.1301
54.4221,0.1864
54.4841,0.185
54.546,0.1286
54.6079,0.1561
54.6698,0.1879
54.7317,0.185
54.7936,0.1922
54.8555,0.1936
54.9174,0.1821
54.9794,0.1821
55.0413,0.1763
55.1032,0.1779
55.1651,0.2009
55.227,0.1864
55.2889,0.2599
55.3508,0.3454
55.5985,0.2139
55.6604,0.2428
55.7223,0.2442
55.7842,0.237
55.8462,0.1597
55.9081,0.3109
55.97,0.3123
56.2176,0.2493
56.2795,0.332
56.5891,0.2052
56.651,0.2706
56.7129,0.2554
56.7749,0.2554
56.8368,0.2032
56.8987,0.1967
56.9606,0.1494
57.0225,0.2325
57.0844,0.2509
57.1463,0.2678
57.2083,0.2211
57.2702,0.1927
57.3321,0.1529
57.394,0.1557
57.4559,0.2028
57.5178,0.2056
57.5797,0.4401
57.6417,0.3801
57.8893,0.1228
57.9512,0.2066
58.0131,0.2572
58.075,0.3555
58.137,0.3035
58.3227,0.1329
58.3846,0.3295
58.4465,0.3194
58.5084,0.263
58.6323,0.289
58.6942,0.2948
58.7561,0.2673
58.818,0.4292
58.8799,0.4306
58.9418,0.4197
59.1276,0.1633
59.1895,0.263
59.2514,0.273
59.3133,0.2948
59.4371,0.2934
59.4991,0.2962
59.7467,0.2108
59.8086,0.4393
59.8705,0.4408
59.9325,0.4525
59.9944,0.1618
60.0563,0.2153
60.1182,0.3671
60.1801,0.3569
60.4278,0.3757
60.4897,0.3454
60.5516,0.2911
60.6135,0.2919
60.6754,0.2934
60.7373,0.328
60.7992,0.2103
60.8612,0.1965
60.9231,0.198
60.985,0.1734
61.0469,0.1416
61.1088,0.315
61.1707,0.3193
61.2326,0.2818
61.2946,0.1488
61.3565,0.1575
61.4184,0.1546
61.4803,0.1503
61.5422,0.2705
61.6041,0.2789
61.666,0.3642
61.728,0.2673
61.7899,0.198
61.8518,0.1965
61.9137,0.2211
61.9756,0.2428
62.0375,0.1965
62.0994,0.1156
62.1614,0.2355
62.2233,0.2341
62.2852,0.3136
62.5947,0.27
62.6567,0.25
62.7186,0.1676
62.7805,0.1662
62.8424,0.104
62.9043,0.1199
62.9662,0.1488
63.0281,0.1561
63.0901,0.2081
63.152,0.1908
63.2139,0.1714
63.2758,0.1156
63.3377,0.2095
63.3996,0.1893
63.4615,0.2052
63.5235,0.2471
63.5854,0.2471
63.6473,0.2934
63.7092,0.2832
63.7711,0.2688
63.833,0.3266
63.8949,0.3251
63.9568,0.2399
64.0188,0.2355
64.0807,0.2428
64.1426,0.2312
64.2045,0.2832
64.2664,0.2312
64.3283,0.1575
64.3902,0.1315
64.4522,0.1618
64.5141,0.2428
64.576,0.2861
64.6379,0.224
64.6998,0.2789
64.7617,0.2312
64.8236,0.2246
64.8856,0.211
64.9475,0.2355
65.0094,0.2667
65.0713,0.3295
65.1332,0.3309
65.1951,0.3251
65.257,0.3251
65.4428,0.2317
65.5047,0.1344
65.5666,0.1647
65.6285,0.2081
65.6904,0.2514
65.7523,0.3223
65.8143,0.2688
65.8762,0.1994
65.9381,0.2064
66.0,0.1792
66.0619,0.159
66.1238,0.1734
