Time (s),Motion Intensity
2.7679,0.2977
2.7835,0.1763
2.7992,0.2558
2.8148,0.3526
2.8305,0.328
2.8461,0.3049
2.8617,0.2948
2.8774,0.341
2.893,0.3866
2.9086,0.4494
2.9243,0.3526
2.9399,0.3512
2.9556,0.2876
2.9712,0.3179
2.9868,0.4408
3.0025,0.4899
3.0181,0.4971
3.0338,0.3815
3.0494,0.2312
3.065,0.1792
3.0807,0.1821
3.0963,0.1922
3.1119,0.2486
3.1276,0.289
3.1432,0.3396
3.1589,0.3092
3.1745,0.2514
3.1901,0.25
3.2058,0.2254
3.2214,0.2139
3.237,0.1546
3.2527,0.1662
3.2683,0.1402
3.284,0.1344
3.2996,0.2355
3.3152,0.3266
3.3309,0.4263
3.3465,0.4176
3.3621,0.3223
3.3778,0.2688
3.3934,0.1792
3.4091,0.2225
3.4247,0.4017
3.4403,0.3902
3.5342,0.2543
3.5498,0.2486
3.5654,0.1879
3.5811,0.2428
3.5967,0.2558
3.6124,0.237
3.628,0.2399
3.6436,0.2428
3.6593,0.2775
3.6749,0.2558
3.6905,0.263
3.7062,0.2587
3.7218,0.1864
3.7375,0.2254
3.7531,0.2623
3.7687,0.2832
3.7844,0.2601
3.8,0.341
3.8156,0.3743
3.8313,0.3469
3.8469,0.3152
3.8626,0.3512
3.8782,0.3353
3.8938,0.3132
3.9095,0.2919
3.9251,0.3858
3.9408,0.3569
3.9564,0.3078
3.972,0.2486
3.9877,0.1908
4.0033,0.1922
4.0189,0.2327
4.0346,0.2486
4.0502,0.2298
4.0659,0.2038
4.0815,0.2413
4.0971,0.2269
4.1128,0.1936
4.1284,0.1994
4.144,0.185
4.1597,0.2471
4.1753,0.2948
4.191,0.2587
4.2066,0.1908
4.2222,0.1517
4.2379,0.1575
4.2535,0.1604
4.2691,0.1763
4.2848,0.2124
4.3004,0.2659
4.3161,0.2673
4.3317,0.2066
4.3473,0.1994
4.363,0.2066
4.3786,0.3251
4.3942,0.3266
4.4099,0.302
4.4255,0.3208
4.4412,0.4061
4.4568,0.4769
4.4724,0.4205
4.4881,0.3049
4.5194,0.2514
4.535,0.2343
4.5506,0.25
4.5663,0.2731
4.5819,0.2327
4.5975,0.1799
4.6132,0.1734
4.6288,0.3613
4.6445,0.3671
4.6601,0.3006
4.6757,0.1922
4.6914,0.2081
4.707,0.2514
4.7226,0.1993
4.7383,0.172
4.7539,0.1387
4.7696,0.211
4.7852,0.2659
4.8008,0.2457
4.8165,0.1792
4.8321,0.2009
4.8477,0.2587
4.8634,0.3454
4.879,0.3035
4.8947,0.2457
4.9103,0.1835
4.9259,0.2139
4.9416,0.1676
4.9572,0.1546
4.9729,0.0954
4.9885,0.1272
5.0041,0.2153
5.0198,0.2327
5.0354,0.3223
5.051,0.3237
5.0667,0.2832
5.0823,0.2124
5.098,0.2124
5.1136,0.2124
5.1292,0.1879
5.1449,0.1795
5.1605,0.1618
5.1761,0.1069
5.1918,0.1185
5.2074,0.1517
5.2231,0.1835
5.2387,0.3049
5.2543,0.3237
5.27,0.2731
5.2856,0.198
5.3012,0.1908
5.3169,0.198
5.3325,0.2558
5.3482,0.2861
5.3638,0.2775
5.3794,0.1749
5.3951,0.185
5.4107,0.2168
5.4264,0.2211
5.442,0.2139
5.4576,0.2514
5.4733,0.2514
5.4889,0.2283
5.5045,0.1879
5.5202,0.2254
5.5358,0.2081
5.5515,0.2876
5.5671,0.289
5.5827,0.3064
5.5984,0.4855
5.614,0.4321
5.7078,0.2847
5.7235,0.2861
5.7391,0.2991
5.7547,0.2298
5.7704,0.2168
5.786,0.172
5.8017,0.1705
5.8173,0.0954
5.8329,0.1185
5.8486,0.3049
5.8642,0.3324
5.8798,0.3382
5.8955,0.263
5.9111,0.2312
5.9268,0.2124
5.9424,0.2009
5.958,0.2457
5.9737,0.2977
5.9893,0.3194
6.005,0.3974
6.0206,0.3512
6.0362,0.2832
6.0519,0.328
6.0675,0.2991
6.0831,0.3251
6.0988,0.3125
6.1144,0.2962
6.1301,0.2024
6.1457,0.1951
6.1613,0.172
6.177,0.1734
6.1926,0.185
6.2082,0.1936
6.2239,0.1951
6.2395,0.1922
6.2552,0.1879
6.2708,0.1633
6.2864,0.1488
6.3021,0.1344
6.3177,0.1777
6.3333,0.1546
6.349,0.1315
6.3646,0.1199
6.3803,0.198
6.3959,0.237
6.4115,0.2514
6.4272,0.2344
6.4428,0.1875
6.4585,0.1951
6.4741,0.2298
6.4897,0.2095
6.5054,0.2066
6.521,0.1763
6.5366,0.2052
6.5523,0.1777
6.5679,0.1965
6.5836,0.211
6.5992,0.2659
6.6148,0.2398
6.6305,0.2124
6.6461,0.2168
6.6617,0.2254
6.6774,0.2066
6.693,0.1217
6.7087,0.1329
6.7243,0.1647
6.7399,0.2197
6.7556,0.2341
6.7712,0.2413
6.7868,0.315
6.8025,0.3699
6.8181,0.2876
6.8338,0.2471
6.8494,0.1936
6.865,0.211
6.8807,0.1922
6.8963,0.172
6.912,0.1893
6.9276,0.2384
6.9432,0.2832
6.9589,0.3092
6.9745,0.2832
6.9901,0.2688
7.0058,0.2486
7.0214,0.2355
7.0371,0.1936
7.0527,0.1358
7.0683,0.1286
7.084,0.237
7.0996,0.2587
7.1152,0.2312
7.1309,0.1257
7.1465,0.1228
7.1622,0.1705
7.1778,0.2659
7.1934,0.2919
7.2091,0.2731
7.2247,0.2139
7.2403,0.276
7.256,0.2775
7.2716,0.2327
7.2873,0.1575
7.3029,0.198
7.3185,0.224
7.3342,0.2225
7.3498,0.2601
7.3655,0.3208
7.3811,0.3295
7.3967,0.2225
7.4124,0.1445
7.428,0.2543
7.4436,0.2543
7.4593,0.3324
7.4749,0.2847
7.4906,0.276
7.5062,0.2355
7.5218,0.1749
7.5375,0.1951
7.5531,0.2312
7.5687,0.2254
7.5844,0.1806
7.6,0.276
7.6157,0.3309
7.6313,0.3584
7.6469,0.3353
7.6626,0.3324
7.6782,0.3382
7.6938,0.3902
7.7095,0.3786
7.7251,0.3454
7.7408,0.2572
7.7564,0.315
7.772,0.4841
7.7877,0.4827
7.8033,0.4292
7.8189,0.1994
7.8346,0.1821
7.8502,0.1922
7.8659,0.1908
7.8815,0.2327
7.8971,0.3165
7.9128,0.3208
7.9284,0.2514
7.9441,0.2543
7.9597,0.2052
7.9753,0.1922
7.991,0.1893
8.0066,0.4449
8.0222,0.5462
8.0379,0.5318
8.1317,0.2775
8.1473,0.2789
8.163,0.3078
8.1786,0.2095
8.1943,0.1301
8.2099,0.1575
8.2255,0.1792
8.2412,0.1994
8.2568,0.198
8.2724,0.2052
8.2881,0.2355
8.3037,0.263
8.3194,0.3092
8.335,0.2991
8.3506,0.2597
8.3663,0.2355
8.3819,0.276
8.3976,0.2717
8.4132,0.3425
8.4288,0.3439
8.4445,0.354
8.4601,0.2457
8.4757,0.1951
8.4914,0.1864
8.507,0.1835
8.5227,0.1257
8.5383,0.159
8.5539,0.1604
8.5696,0.1647
8.5852,0.1777
8.6008,0.1763
8.6165,0.1402
8.6321,0.1879
8.6478,0.2168
8.6634,0.4379
8.679,0.4379
8.6947,0.3569
8.7103,0.2601
8.7259,0.2717
8.7416,0.2413
8.7572,0.1286
8.7729,0.1272
8.7885,0.2211
8.8041,0.2384
8.8198,0.2225
8.8354,0.1257
8.8511,0.1228
8.8667,0.1416
8.8823,0.1532
8.898,0.2211
8.9136,0.2702
8.9292,0.4509
8.9449,0.474
8.9605,0.4205
8.9762,0.3483
8.9918,0.2066
9.0074,0.1951
9.0231,0.1705
9.0387,0.2298
9.0543,0.2327
9.07,0.3121
9.0856,0.3136
9.1013,0.3136
9.1169,0.2529
9.1325,0.1974
9.1482,0.1792
9.1638,0.1503
9.1794,0.2341
9.1951,0.3064
9.2107,0.3309
9.2264,0.3092
9.242,0.3165
9.2576,0.3353
9.2733,0.2861
9.2889,0.2254
9.3045,0.2052
9.3202,0.1922
9.3358,0.2081
9.3515,0.2789
9.3671,0.2327
9.3827,0.2327
9.3984,0.2659
9.414,0.263
9.4297,0.2254
9.4453,0.2486
9.4609,0.2254
9.4766,0.2012
9.4922,0.1879
9.5078,0.2486
9.5235,0.2934
9.5391,0.263
9.5548,0.2182
9.5704,0.1402
9.586,0.1532
9.6017,0.2413
9.6173,0.3194
9.6329,0.3757
9.6486,0.3815
9.6642,0.3844
9.6799,0.3801
9.6955,0.2616
9.7111,0.2587
9.7268,0.2066
9.7424,0.224
9.758,0.2139
9.7737,0.2153
9.7893,0.2038
9.805,0.1604
9.8206,0.1618
9.8362,0.1431
9.8519,0.1893
9.8675,0.1908
9.8832,0.211
9.8988,0.2182
9.9144,0.2486
9.9301,0.2818
9.9457,0.1734
9.9613,0.1777
9.977,0.1792
9.9926,0.1937
10.0083,0.1893
10.0239,0.2211
10.0395,0.2211
10.0552,0.172
10.0708,0.2009
10.0864,0.2174
10.1021,0.2139
10.1177,0.2095
10.1334,0.2486
10.149,0.2514
10.1646,0.2688
10.1803,0.2861
10.1959,0.2211
10.2115,0.1806
10.2272,0.1936
10.2428,0.2327
10.2585,0.2261
10.2741,0.2153
10.2897,0.1575
10.3054,0.172
10.321,0.2327
10.3367,0.3223
10.3523,0.2861
10.3679,0.2616
10.3836,0.25
10.3992,0.2486
10.4148,0.2384
10.4305,0.2332
10.4461,0.2197
10.4618,0.2948
10.4774,0.2731
10.493,0.2934
10.5087,0.2688
10.5243,0.2269
10.5399,0.1936
10.5556,0.2775
10.5712,0.3266
10.5869,0.3107
10.6025,0.2197
10.6181,0.2197
10.6338,0.1965
10.6494,0.2052
10.665,0.198
10.6807,0.1893
10.6963,0.1344
10.712,0.1546
10.7276,0.1879
10.7432,0.2168
10.7589,0.2009
10.7745,0.2095
10.7902,0.2428
10.8058,0.2775
10.8214,0.2139
10.8371,0.1633
10.8527,0.1561
10.8683,0.2168
10.884,0.2384
10.8996,0.3107
10.9153,0.2616
10.9309,0.2543
10.9465,0.1847
10.9622,0.1561
10.9778,0.1301
10.9934,0.1994
11.0091,0.1329
11.0247,0.1199
11.0404,0.1517
11.056,0.1821
11.0716,0.2312
11.0873,0.198
11.1029,0.3656
11.1185,0.3671
11.1342,0.328
11.1498,0.0939
11.1655,0.0925
11.1967,0.2327
11.2124,0.2789
11.228,0.3179
11.2436,0.237
11.2593,0.1676
11.2749,0.0968
11.2906,0.1142
11.3062,0.1618
11.3218,0.1734
11.3375,0.1387
11.3531,0.1431
11.3688,0.1908
11.3844,0.3006
11.4,0.3338
11.4157,0.2905
11.4313,0.289
11.4469,0.2847
11.4626,0.2543
11.4782,0.0621
11.4939,0.0853
11.5095,0.0882
11.5251,0.2269
11.5408,0.2457
11.5564,0.2514
11.572,0.3078
11.5877,0.4436
11.6033,0.4595
11.619,0.4205
11.6346,0.2876
11.6502,0.2991
11.6659,0.2355
11.6815,0.0925
11.6971,0.1705
11.7128,0.172
11.7284,0.2789
11.7441,0.2688
11.7597,0.2673
11.7753,0.1575
11.791,0.1257
11.8066,0.1965
11.8223,0.25
11.8379,0.2428
11.8535,0.237
11.8692,0.2153
11.8848,0.1474
11.9004,0.1069
11.9161,0.1387
11.9317,0.1286
11.9474,0.1503
11.963,0.198
11.9786,0.185
11.9943,0.2543
12.0099,0.2818
12.0255,0.3136
12.0412,0.2991
12.0568,0.2341
12.0725,0.2038
12.0881,0.2124
12.1037,0.1951
12.1194,0.1922
12.135,0.1662
12.1506,0.2327
12.1663,0.2616
12.1819,0.2616
12.1976,0.2702
12.2132,0.1633
12.2288,0.2254
12.2445,0.2283
12.2601,0.2478
12.2758,0.2598
12.2914,0.5549
12.307,0.6373
12.4009,0.1329
12.4165,0.1749
12.4321,0.2077
12.4478,0.2558
12.4634,0.2948
12.479,0.276
12.4947,0.25
12.5103,0.2428
12.526,0.172
12.5416,0.172
12.5572,0.1185
12.5729,0.2052
12.5885,0.2731
12.6041,0.2775
12.6198,0.2355
12.6354,0.2601
12.6511,0.2803
12.6667,0.1879
12.6823,0.146
12.698,0.1922
12.7136,0.2298
12.7292,0.2688
12.7449,0.211
12.7605,0.2039
12.7762,0.2052
12.7918,0.185
12.8074,0.1416
12.8231,0.1503
12.8387,0.172
12.8544,0.1777
12.87,0.1647
12.8856,0.1922
12.9013,0.2023
12.9169,0.1994
12.9325,0.185
12.9482,0.1724
12.9638,0.1662
12.9795,0.0968
12.9951,0.0968
13.0107,0.0939
13.0264,0.1647
13.042,0.1243
13.0576,0.1503
13.0733,0.198
13.0889,0.2124
13.1046,0.2052
13.1202,0.2052
13.1358,0.2269
13.1515,0.1893
13.1671,0.2023
13.1827,0.2225
13.1984,0.2066
13.214,0.1864
13.2297,0.1821
13.2453,0.2529
13.2609,0.3179
13.2766,0.3194
13.2922,0.2962
13.3079,0.0968
13.3235,0.2052
13.3391,0.2066
13.3548,0.341
13.3704,0.3049
13.386,0.4581
13.4017,0.4971
13.4173,0.4003
13.433,0.3266
13.4486,0.2847
13.4642,0.2653
13.4799,0.2124
13.4955,0.25
13.5111,0.185
13.5268,0.1835
13.5424,0.1069
13.5581,0.1503
13.5737,0.1532
13.5893,0.2688
13.605,0.3136
13.6206,0.2514
13.6362,0.1532
13.6519,0.2601
13.6675,0.3613
13.6832,0.3613
13.6988,0.2731
13.7144,0.2861
13.7301,0.2787
13.7457,0.2746
13.7614,0.2601
13.777,0.2572
13.7926,0.1893
13.8083,0.2052
13.8239,0.2182
13.8395,0.1676
13.8552,0.1503
13.8708,0.1445
13.8865,0.2298
13.9021,0.2948
13.9177,0.3367
13.9334,0.3194
13.949,0.2818
13.9646,0.2659
13.9803,0.2702
13.9959,0.2659
14.0116,0.2139
14.0272,0.237
14.0428,0.2616
14.0585,0.2587
14.0741,0.2283
14.0897,0.2341
14.1054,0.3324
14.121,0.3454
14.1367,0.3555
14.1523,0.2298
14.1679,0.2168
14.1836,0.1951
14.1992,0.1922
14.2148,0.1647
14.2305,0.224
14.2461,0.2334
14.2618,0.211
14.2774,0.2081
14.293,0.1806
14.3087,0.2081
14.3243,0.2688
14.34,0.2327
14.3556,0.2486
14.3712,0.2991
14.3869,0.3439
14.4025,0.3815
14.4181,0.3786
14.4338,0.289
14.4494,0.1806
14.4651,0.1561
14.4807,0.1821
14.4963,0.1171
14.512,0.159
14.5276,0.2168
14.5432,0.1431
14.5589,0.1633
14.5745,0.2081
14.5902,0.2168
14.6058,0.2009
14.6214,0.1662
14.6371,0.1662
14.6527,0.185
14.6683,0.198
14.684,0.4133
14.6996,0.422
14.7153,0.461
14.7309,0.3656
14.7465,0.289
14.7622,0.2876
14.7778,0.2702
14.7935,0.2095
14.8091,0.2038
14.8247,0.2066
14.8404,0.2197
14.856,0.2529
14.8716,0.3006
14.8873,0.3338
14.9029,0.3179
14.9186,0.1994
14.9342,0.2066
14.9498,0.198
14.9655,0.2948
14.9811,0.3526
14.9967,0.3757
15.0124,0.3483
15.028,0.2825
15.0437,0.2616
15.0593,0.1445
15.0749,0.1243
15.0906,0.1329
15.1062,0.1358
15.1218,0.1705
15.1375,0.1879
15.1531,0.1864
15.1688,0.1503
15.1844,0.1113
15.2,0.1879
15.2157,0.2457
15.2313,0.2428
15.247,0.302
15.2626,0.2514
15.2782,0.2168
15.2939,0.224
15.3095,0.2269
15.3251,0.2269
15.3408,0.2832
15.3564,0.2948
15.3721,0.3237
15.3877,0.3353
15.4033,0.224
15.419,0.1777
15.4346,0.1792
15.4502,0.435
15.4659,0.4827
15.4815,0.4552
15.5597,0.2876
15.5753,0.4061
15.591,0.3974
15.6066,0.3266
15.6223,0.1691
15.6379,0.2038
15.6535,0.2587
15.6692,0.1965
15.6848,0.1936
15.7005,0.0997
15.7161,0.0867
15.7317,0.1257
15.7474,0.2081
15.763,0.2168
15.7786,0.211
15.7943,0.2428
15.8099,0.2688
15.8256,0.328
15.8412,0.2659
15.8568,0.2645
15.8725,0.3179
15.8881,0.341
15.9037,0.1806
15.9194,0.1373
15.935,0.1373
15.9507,0.2225
15.9663,0.3006
15.9819,0.3598
15.9976,0.4292
16.0132,0.3454
